# XDI/1.0 BlueSky/1.11.0 BMM/2023-2.1-py310-tiled
# Beamline.name: BMM (06BM) -- Beamline for Materials Measurement (NIST)
# Beamline.xray_source: NSLS-II three-pole wiggler
# Beamline.collimation: paraboloid mirror, 5 nm Rh on 30 nm Pt
# Beamline.focusing: not in use
# Beamline.harmonic_rejection: flat mirror, Si stripe, pitch = 7.0 mrad relative to beam
# Beamline.software: Bluesky 1.11.0, Ophyd 1.8.0, DataBroker 2.0.0b23, Python 3.10.8, 2023-2.1-py310-tiled
# Detector.I0: 10 cm N2
# Detector.I1: 25 cm N2
# Detector.I2: 25 cm N2
# Detector.fluorescence: SII Vortex ME4 (4-element silicon drift)
# Detector.deadtime_correction: Xspress3
# Element.symbol: Fe
# Element.edge: K
# Element.reference: Fe
# Element.reference_material: Fe foil
# Facility.name: NSLS-II
# Facility.energy: 3.0
# Facility.current: 399.3
# Facility.mode: top-off
# Facility.GUP: 315355
# Facility.SAF: 313563
# Facility.cycle: 2024-1
# Mono.name: Si(111)
# Mono.d_spacing: 3.1354173
# Mono.encoder_resolution: 0.0000050 deg/ct
# Mono.angle_offset: 16.0891518 deg
# Mono.scan_mode: pseudo channel cut
# Mono.scan_type: step
# Mono.direction: forward in energy
# Sample.name: Ca2Fe0.75Mn0.25FeSi5O14(OH)
# Sample.prep: PEG pellet
# Sample.x: 90.051 mm
# Sample.y: 81.516 mm
# Sample.SDD_position: 120.000 mm
# Scan.experimenters: XAS course 2024
# Scan.edge_energy: 7112.0
# Scan.start_time: 2024-03-21T11:03:04
# Scan.end_time: 2024-03-21T11:12:33
# Scan.transient_id: 5321
# Scan.uid: c6291ebd-93f6-4e93-9e5d-de5774268ee1
# Scan.hdf5file: 2024/03/21/c772f5e3-90d7-452f-9605_000000.h5
# Scan.plot_hint: (Fe1+Fe2+Fe3+Fe4)/I0  --  ($8+$9+$10+$11)/$5
# Column.1: energy eV
# Column.2: requested_energy eV
# Column.3: measurement_time seconds
# Column.4: xmu 
# Column.5: I0 nA
# Column.6: It nA
# Column.7: Ir nA
# Column.8: Fe1 
# Column.9: Fe2 
# Column.10: Fe3 
# Column.11: Fe4 
# ///////////
# Babingtonite, CM14452; Lane's Quarry, Westfield, Hampden County, Massachusetts
# -----------
# energy  requested_energy  measurement_time  xmu  I0  It  Ir  Fe1  Fe2  Fe3  Fe4
  6912.019  6912.000  1.000  5.981312  475.862469  0.787765  0.011794  761.070313  749.071415  662.070651  674.069337
  6922.008  6922.000  1.000  5.927439  475.463339  0.803096  0.011816  761.070313  786.074805  635.068214  636.066366
  6932.017  6932.000  1.000  5.848190  475.409088  0.818712  0.012416  682.064532  741.072051  669.073356  688.072695
  6942.023  6942.000  1.000  6.066893  475.314772  0.836967  0.012480  741.465377  786.074834  687.073964  669.069558
  6952.019  6952.000  1.000  6.150909  475.286437  0.854257  0.012790  734.215859  747.071868  710.078597  732.077244
  6962.016  6962.000  1.000  5.970856  475.270279  0.871830  0.013381  750.549186  739.071976  660.074853  688.074269
  6972.010  6972.000  1.000  6.234226  475.182066  0.891007  0.013713  743.158915  801.078686  707.077849  711.076912
  6982.005  6982.000  1.000  6.117483  475.083210  0.907828  0.013559  768.083270  719.072123  719.081598  700.076440
  6992.008  6992.000  1.000  6.225463  474.391594  0.931429  0.014136  737.071330  807.080607  719.080933  690.074589
  7002.005  7002.000  1.000  6.408848  474.237427  0.949497  0.014421  797.077018  795.078226  752.084986  695.075312
  7012.009  7012.000  1.000  6.582502  473.819569  0.968581  0.014894  807.667365  803.080609  716.082869  792.087635
  7022.012  7022.000  1.000  6.713118  473.603553  0.987252  0.015314  818.103214  834.082053  776.088377  751.082760
  7032.005  7032.000  1.000  6.865179  473.311420  1.006689  0.015402  818.103214  865.086411  788.091793  778.086154
  7042.010  7042.000  1.000  7.162493  473.071199  1.027613  0.015805  820.083167  932.097323  829.096683  807.091978
  7052.006  7052.000  1.000  7.634715  472.621931  1.047799  0.015848  920.036040  1009.104568  827.096926  852.096000
  7062.003  7062.000  1.000  7.930981  468.720654  1.059712  0.016287  936.097740  1005.106855  844.101008  932.109197
  7072.005  7072.000  1.000  9.156552  471.640108  1.086880  0.016642  1112.231003  1182.126295  979.118939  1045.121104
  7082.004  7082.000  1.000  10.529816  471.547452  1.104600  0.017080  1231.869223  1342.144935  1187.149284  1204.144242
  7084.001  7084.000  1.000  10.946640  469.709621  1.105205  0.016730  1359.295527  1322.144015  1245.156750  1215.145909
  7086.001  7086.000  1.000  11.119503  471.027241  1.113135  0.017136  1352.142448  1449.156418  1250.149534  1186.140217
  7087.997  7088.000  1.000  11.619466  471.209811  1.115820  0.017078  1419.731043  1494.165759  1298.159674  1263.149889
  7090.008  7090.000  1.000  12.422213  471.096996  1.121502  0.017276  1484.536349  1535.173359  1414.182642  1418.174968
  7092.003  7092.000  1.000  12.780810  470.995441  1.125269  0.017135  1573.170925  1568.175244  1455.183536  1423.173396
  7093.999  7094.000  1.000  13.887580  470.923289  1.128638  0.017214  1683.409089  1864.209747  1428.175309  1564.190538
  7096.005  7096.000  1.000  14.325261  470.762375  1.132511  0.017243  1731.189652  1786.199518  1626.209456  1600.195324
  7098.001  7098.000  1.000  15.373636  470.768215  1.134732  0.016969  1846.771226  1931.218204  1737.219563  1722.210218
  7100.003  7100.000  1.000  16.433436  470.804639  1.134917  0.017241  1937.224156  1998.229372  1904.245434  1897.238721
  7102.004  7102.000  1.000  17.842630  470.689175  1.136833  0.016875  2176.565774  2166.247385  1997.261742  2058.257849
  7102.284  7102.300  1.000  17.949566  470.652102  1.138380  0.017080  2251.238942  2217.251963  1935.253325  2044.256606
  7102.579  7102.600  1.000  18.239529  470.626855  1.139188  0.017002  2251.238942  2217.251963  2073.269578  2042.251912
  7102.883  7102.900  1.000  18.729458  470.505628  1.139193  0.017058  2285.500579  2330.272234  2046.271285  2150.271204
  7103.188  7103.200  1.000  18.732968  470.374671  1.139323  0.017093  2265.694845  2330.272234  2046.271285  2169.275390
  7103.484  7103.500  1.000  19.022673  470.546562  1.138790  0.016893  2268.223830  2422.281984  2181.286022  2079.261624
  7103.783  7103.800  1.000  19.269847  470.430747  1.140091  0.016980  2423.294308  2430.285164  2129.283967  2082.265307
  7104.087  7104.100  1.000  19.749098  470.409527  1.138910  0.017232  2393.300805  2505.292775  2186.289493  2205.280816
  7104.384  7104.400  1.000  19.997502  470.331491  1.140564  0.017303  2417.576110  2498.292862  2303.306628  2186.279407
  7104.690  7104.700  1.000  20.329313  470.344942  1.141629  0.016831  2440.907588  2564.296657  2246.294546  2310.290780
  7104.988  7105.000  1.000  20.557303  470.358972  1.141762  0.017112  2507.396802  2540.303789  2297.311373  2324.299923
  7105.285  7105.300  1.000  21.310166  470.276858  1.141462  0.017080  2586.731177  2668.320065  2357.315027  2409.311645
  7105.594  7105.600  1.000  21.509546  470.266582  1.141314  0.016689  2579.247104  2624.313441  2494.344314  2417.315944
  7105.893  7105.900  1.000  21.626243  470.282658  1.140018  0.016706  2636.489016  2590.308927  2430.325482  2513.323591
  7106.195  7106.200  1.000  22.202629  470.212509  1.141379  0.016586  2690.962052  2724.327158  2551.344688  2473.320172
  7106.493  7106.500  1.000  22.766417  470.343019  1.140877  0.016662  2851.016792  2777.330190  2532.347661  2547.330453
  7106.795  7106.800  1.000  23.155207  470.208280  1.141785  0.016520  2883.739958  2925.352542  2542.347635  2536.329946
  7107.101  7107.100  1.000  23.239012  470.101617  1.143312  0.016656  2763.632850  2910.357283  2615.357291  2635.349547
  7107.401  7107.400  1.000  24.316788  470.186721  1.141619  0.016418  2961.328272  3083.372240  2733.380522  2655.349744
  7107.703  7107.700  1.000  24.875012  470.082258  1.141325  0.016569  2979.173801  3204.384646  2739.377008  2770.366278
  7107.994  7108.000  1.000  25.588072  469.924622  1.143239  0.016333  3192.304795  3192.391188  2805.392125  2834.376867
  7108.294  7108.300  1.000  25.995717  469.983796  1.141406  0.016239  3129.362242  3180.390950  2953.414993  2954.397515
  7108.602  7108.600  1.000  26.180727  469.915255  1.142310  0.016288  3161.509850  3228.400160  3037.425924  2875.387136
  7108.896  7108.900  1.000  26.782910  469.880287  1.141321  0.016187  3120.508932  3373.419443  2994.417797  3096.415114
  7109.200  7109.200  1.000  28.169756  469.912325  1.139585  0.016113  3388.007340  3447.425283  3243.457734  3158.425086
  7109.496  7109.500  1.000  28.343446  469.936522  1.137337  0.015601  3309.287065  3610.450945  3193.449799  3206.432829
  7109.796  7109.800  1.000  30.107370  469.866965  1.138633  0.015148  3607.020541  3819.488417  3325.481240  3394.468353
  7110.098  7110.100  1.000  31.625541  469.699100  1.138757  0.015055  3685.972063  4005.512706  3547.504856  3615.498307
  7110.398  7110.400  1.000  32.969978  469.736625  1.135607  0.014742  4096.624812  4061.529827  3689.542226  3639.509396
  7110.704  7110.700  1.000  35.658565  469.715531  1.134376  0.014065  4386.639711  4437.589034  3955.583549  3969.569387
  7111.005  7111.000  1.000  37.956923  469.587019  1.131557  0.013042  4697.182941  4717.641540  4184.634863  4224.619172
  7111.311  7111.300  1.000  42.365601  469.635531  1.126688  0.011532  5145.189261  5277.741523  4649.731521  4823.729410
  7111.599  7111.600  1.000  46.263575  469.570861  1.121744  0.010376  5613.599993  5720.811998  5182.824849  5206.789937
  7111.901  7111.900  1.000  48.600119  469.509383  1.118004  0.009483  5935.595304  5970.871075  5406.883217  5504.862408
  7112.199  7112.200  1.000  50.874667  469.382723  1.115103  0.008340  6096.944333  6359.933161  5633.901356  5788.910888
  7112.497  7112.500  1.000  54.047266  469.142793  1.113400  0.007693  6540.924539  6738.005816  5994.987302  6081.967492
  7112.795  7112.800  1.000  57.582385  469.113830  1.107591  0.007160  6890.436061  7183.100451  6431.091600  6508.065048
  7113.096  7113.100  1.000  61.641949  469.005162  1.102647  0.006633  7439.836450  7603.185527  6848.190904  7019.179225
  7113.398  7113.400  1.000  65.076919  468.991790  1.097550  0.006240  7715.702377  8223.321077  7333.287912  7248.229394
  7113.701  7113.700  1.000  67.638396  468.898992  1.092665  0.005769  8120.541914  8470.369023  7521.345572  7603.319179
  7114.005  7114.000  1.000  68.746947  468.744504  1.092862  0.005461  8120.541914  8470.369023  7774.437400  7859.405069
  7114.299  7114.300  1.000  69.714397  468.900078  1.091458  0.005432  8309.832316  8741.449769  7803.418177  7834.385809
  7114.604  7114.600  1.000  70.743421  468.868831  1.089847  0.005330  8612.075043  8806.463194  7927.455980  7823.390905
  7114.904  7114.900  1.000  70.069510  468.788010  1.091411  0.004809  8497.478206  8744.451907  7815.429348  7790.386498
  7115.201  7115.200  1.000  68.904728  468.877895  1.092238  0.004595  8188.747372  8683.406712  7725.404192  7710.345555
  7115.501  7115.500  1.000  66.988501  468.749634  1.095933  0.004680  8151.869532  8366.344890  7425.336843  7457.284148
  7115.797  7115.800  1.000  66.490900  468.779202  1.097004  0.004591  7948.582663  8407.361888  7301.301187  7512.305360
  7116.098  7116.100  1.000  68.331863  468.620407  1.097822  0.004472  8323.636305  8492.379587  7554.356105  7651.333440
  7116.394  7116.400  1.000  71.015713  468.706354  1.094336  0.004525  8428.144689  8835.468565  7946.470598  8075.432081
  7116.695  7116.700  1.000  75.691683  468.558870  1.092453  0.004681  9085.287375  9513.616126  8381.565785  8485.540236
  7116.998  7117.000  1.000  81.467608  468.603018  1.086312  0.004216  9840.758825  10141.763272  9045.737691  9147.707424
  7117.298  7117.300  1.000  89.198628  468.537337  1.078378  0.004280  10728.800197  11115.076713  9951.029891  9997.980730
  7117.601  7117.600  1.000  97.103971  468.527876  1.065760  0.004032  10728.800197  12306.406672  11257.400928  11203.309708
  7117.904  7117.900  1.000  113.743813  468.500985  1.050840  0.003774  13708.545521  14115.896758  12661.841958  12802.804302
  7118.203  7118.200  1.000  132.181537  468.477908  1.030897  0.003059  15921.366795  16299.646027  14802.573721  14900.543545
  7118.506  7118.500  1.000  155.794974  468.432910  1.005838  0.003091  18668.506569  19345.770667  17504.656032  17460.559837
  7118.802  7118.800  1.000  182.498490  468.295940  0.976189  0.002655  21652.100240  22760.238581  20514.044992  20536.917985
  7119.105  7119.100  1.000  214.807768  468.334048  0.939757  0.002462  25703.276082  26609.061215  23967.723919  24321.730074
  7119.402  7119.400  1.000  249.361915  468.220121  0.902330  0.002180  29862.774741  31027.625022  27846.951134  28018.915220
  7119.703  7119.700  1.000  284.740653  468.237357  0.861129  0.001792  34072.929542  35174.166130  32054.677257  32024.437924
  7119.997  7120.000  1.000  322.902705  468.109397  0.818391  0.001481  38695.166620  39939.659331  35954.290052  36564.674403
  7120.304  7120.300  1.000  353.722048  468.015302  0.774148  0.001314  38695.166620  45094.662938  40974.363511  40783.138048
  7120.597  7120.600  1.000  402.514901  468.106211  0.731449  0.000895  48107.969706  50061.779329  45062.965274  45187.010981
  7120.902  7120.900  1.000  438.317927  469.342741  0.694644  0.000919  52688.253551  54492.083787  49099.954719  49441.044941
  7121.205  7121.200  1.000  470.827967  469.242085  0.659241  0.000965  56089.253711  58655.382978  52859.589925  53328.070349
  7121.506  7121.500  1.000  506.416697  469.328456  0.627154  0.000625  60815.110635  62879.089008  56760.229039  57221.337846
  7121.807  7121.800  1.000  534.315532  469.270801  0.597728  0.000571  64052.909245  65865.875877  60207.694081  60612.198769
  7122.109  7122.100  1.000  565.173023  469.223665  0.569553  0.000614  67605.297371  69955.572923  63545.172704  64086.514056
  7122.401  7122.400  1.000  594.333551  469.181389  0.542164  0.000476  71004.565904  73771.464818  66935.659988  67138.550164
  7122.702  7122.700  1.000  632.289816  468.940836  0.514039  0.000379  75748.161576  78407.064352  71117.729586  71233.559764
  7122.997  7123.000  1.000  667.699500  469.191218  0.484063  0.000549  80152.023391  82448.811257  75281.542210  75396.364426
  7123.300  7123.300  1.000  713.858627  468.985059  0.451845  0.000122  85180.917394  88267.606727  80591.135614  80749.370386
  7123.595  7123.600  1.000  756.522710  468.965838  0.417480  0.000217  90425.010597  93942.670235  84933.390167  85482.235250
  7123.903  7123.900  1.000  804.800580  468.892791  0.382925  -0.000011  96086.465811  99691.200653  90945.094138  90642.429112
  7124.202  7124.200  1.000  840.618075  468.826555  0.350326  0.000144  101803.740022  105283.012659  90945.094138  96072.229091
  7124.505  7124.500  1.000  898.622693  468.803051  0.318023  0.000185  106795.639055  110773.032803  101956.395153  101751.993071
  7124.802  7124.800  1.000  942.407368  468.666869  0.289769  -0.000013  112279.100585  116040.302975  106364.603014  106991.104008
  7125.106  7125.100  1.000  980.683052  468.608710  0.264368  -0.000071  116627.881542  120468.990128  111421.954494  111037.794317
  7125.403  7125.400  1.000  1007.577963  468.522985  0.245050  0.000197  120031.033564  123875.637856  113842.089512  114324.673790
  7125.709  7125.700  1.000  1029.057761  468.366424  0.231032  -0.000419  122032.360944  126926.291159  116557.672458  116459.779460
  7126.002  7126.000  1.000  1043.801329  468.359532  0.222751  -0.000007  124177.895262  128435.425175  118156.024220  118104.957695
  7126.303  7126.300  1.000  1049.664691  468.321496  0.218121  -0.000003  124868.252589  129019.856275  118650.357074  119042.072624
  7126.598  7126.600  1.000  1053.707789  468.329205  0.214914  -0.000108  124713.906958  129551.925501  119663.460412  119552.837622
  7126.895  7126.900  1.000  1064.301557  468.213531  0.211534  -0.000310  127044.349569  130991.106265  119783.045864  120501.889009
  7127.201  7127.200  1.000  1077.099763  468.093211  0.207212  -0.000024  127689.838954  132034.750658  122247.610980  122210.885935
  7127.501  7127.500  1.000  1093.972097  468.032347  0.200548  -0.000255  129595.992038  134322.565995  124154.579064  123941.190993
  7127.802  7127.800  1.000  1109.447966  467.970255  0.192717  -0.000477  132312.330912  135898.092301  125282.080471  125696.144306
  7128.106  7128.100  1.000  1126.492921  467.946032  0.184482  -0.000070  133892.843463  138257.763638  127277.838103  127709.447769
  7128.408  7128.400  1.000  1144.348188  467.930648  0.177018  -0.000391  136180.619916  140384.125353  129477.113953  129433.730254
  7128.707  7128.700  1.000  1163.179490  467.829785  0.170697  -0.000000  137531.581293  142471.008368  132068.621590  132098.799544
  7129.000  7129.000  1.000  1167.786952  467.796812  0.165474  -0.000288  137531.581293  143585.547567  132560.257554  132609.626996
  7129.306  7129.300  1.000  1179.429776  467.674934  0.161367  -0.000275  140383.383427  144365.066894  133623.551599  133217.741242
  7129.600  7129.600  1.000  1183.995371  467.526383  0.158222  -0.000432  140165.555004  144798.126311  134200.155795  134385.236272
  7129.903  7129.900  1.000  1189.657592  467.529267  0.156103  -0.000066  141092.631568  145726.610602  134588.821566  134791.677757
  7130.201  7130.200  1.000  1190.374805  467.480636  0.155210  -0.000214  141130.986578  145770.852251  134403.948145  135171.383850
  7130.501  7130.500  1.000  1187.564327  467.386450  0.155582  -0.000301  140747.604214  145181.132581  134284.561173  134838.177478
  7130.803  7130.800  1.000  1182.512816  467.160075  0.157362  -0.000072  140200.662519  145322.551473  133867.691076  133031.870732
  7131.102  7131.100  1.000  1172.769348  467.209147  0.160375  -0.000082  138388.207171  144597.955594  132111.625450  132830.778305
  7131.400  7131.400  1.000  1161.409029  467.122011  0.164464  0.000073  137264.265460  142867.729835  131535.922512  130851.803965
  7131.704  7131.700  1.000  1153.081783  466.978160  0.168909  -0.000356  135931.598249  141684.497364  130258.389819  130589.524248
  7132.006  7132.000  1.000  1143.473487  466.952494  0.173057  -0.000228  135428.577957  140280.207462  129175.209674  129063.800881
  7132.299  7132.300  1.000  1133.992285  466.921281  0.176585  -0.000230  134194.032812  138499.349490  128156.865002  128634.883018
  7132.601  7132.600  1.000  1131.450567  466.884550  0.179750  -0.000225  134159.672975  138499.349490  127868.282404  127729.484590
  7132.901  7132.900  1.000  1125.493509  466.827400  0.182953  0.000044  132519.995641  138051.578300  127115.997054  127723.637323
  7133.195  7133.200  1.000  1115.024536  466.831061  0.186375  -0.000181  132363.406808  136653.638678  126116.534158  125394.506910
  7133.501  7133.500  1.000  1104.928092  466.808191  0.190050  0.000041  130628.828072  135440.260256  124800.543975  124919.851980
  7133.801  7133.800  1.000  1096.719847  466.795753  0.194054  -0.000183  129891.481568  134307.232061  123958.831765  123786.621147
  7134.101  7134.100  1.000  1085.399551  466.795184  0.198697  -0.000189  128367.361894  132917.792521  122693.596004  122680.532476
  7134.399  7134.400  1.000  1079.372943  466.825677  0.203089  -0.000065  127631.311712  132440.615701  121761.983788  122045.093729
  7134.703  7134.700  1.000  1069.281209  466.789915  0.207509  -0.000197  126240.059234  131232.678353  120643.946220  121013.000929
  7135.003  7135.000  1.000  1061.800437  466.635873  0.211606  -0.000199  125836.455326  130305.408746  120036.884902  119295.424794
  7135.304  7135.300  1.000  1058.442402  466.715349  0.215081  -0.000218  125836.455326  129732.856681  119198.275213  119223.727570
  7135.602  7135.600  1.000  1053.167654  466.610889  0.217622  -0.000058  124678.327619  129211.275260  118534.959322  118994.933066
  7135.897  7135.900  1.000  1050.792567  466.562873  0.219975  -0.000348  124303.542806  128646.135312  118469.618956  118841.501979
  7136.195  7136.200  1.000  1047.243921  466.558076  0.221238  -0.000228  124139.557347  128031.521859  118059.606409  118369.423495
