# XDI/1.0 BlueSky/1.11.0 BMM/2023-2.1-py310-tiled
# Beamline.name: BMM (06BM) -- Beamline for Materials Measurement (NIST)
# Beamline.xray_source: NSLS-II three-pole wiggler
# Beamline.collimation: paraboloid mirror, 5 nm Rh on 30 nm Pt
# Beamline.focusing: not in use
# Beamline.harmonic_rejection: flat mirror, Si stripe, pitch = 7.0 mrad relative to beam
# Beamline.software: Bluesky 1.11.0, Ophyd 1.8.0, DataBroker 2.0.0b23, Python 3.10.8, 2023-2.1-py310-tiled
# Detector.I0: 10 cm N2
# Detector.I1: 25 cm N2
# Detector.I2: 25 cm N2
# Detector.fluorescence: SII Vortex ME4 (4-element silicon drift)
# Detector.deadtime_correction: Xspress3
# Element.symbol: Fe
# Element.edge: K
# Element.reference: Fe
# Element.reference_material: Fe foil
# Facility.name: NSLS-II
# Facility.energy: 3.0
# Facility.current: 399.1
# Facility.mode: top-off
# Facility.GUP: 315355
# Facility.SAF: 313563
# Facility.cycle: 2024-1
# Mono.name: Si(111)
# Mono.d_spacing: 3.1354173
# Mono.encoder_resolution: 0.0000050 deg/ct
# Mono.angle_offset: 16.0891518 deg
# Mono.scan_mode: pseudo channel cut
# Mono.scan_type: step
# Mono.direction: forward in energy
# Sample.name: Ca(Zn,Mn,Fe,Mg)Si2O6
# Sample.prep: powder on tape
# Sample.x: 113.234 mm
# Sample.y: 81.177 mm
# Sample.SDD_position: 35.000 mm
# Scan.experimenters: Bruce Ravel
# Scan.edge_energy: 7112.0
# Scan.start_time: 2024-03-21T14:37:45
# Scan.end_time: 2024-03-21T14:48:12
# Scan.transient_id: 5354
# Scan.uid: 4acdc768-60fd-4cc5-a6a3-1e3597037b3f
# Scan.hdf5file: 2024/03/21/a46b4428-3f2c-42e3-a019_000000.h5
# Scan.plot_hint: (Fe1+Fe2+Fe3+Fe4)/I0  --  ($8+$9+$10+$11)/$5
# Column.1: energy eV
# Column.2: requested_energy eV
# Column.3: measurement_time seconds
# Column.4: xmu 
# Column.5: I0 nA
# Column.6: It nA
# Column.7: Ir nA
# Column.8: Fe1 
# Column.9: Fe2 
# Column.10: Fe3 
# Column.11: Fe4 
# ///////////
# sample courtesy Martin Stennett, University of Sheffield
# -----------
# energy  requested_energy  measurement_time  xmu  I0  It  Ir  Fe1  Fe2  Fe3  Fe4
  6912.007  6912.000  1.000  21.635705  481.299249  34.525743  4.192353  3328.382855  3290.769347  1716.365716  2077.730546
  6922.018  6922.000  1.000  21.287998  480.691482  34.892867  4.268369  3293.175009  3227.725855  1599.284929  2112.773705
  6932.017  6932.000  1.000  20.555225  480.326333  35.269694  4.345958  3155.593904  3088.621313  1565.262074  2063.738704
  6942.019  6942.000  1.000  19.573300  480.101758  35.668511  4.427802  2940.735313  2918.499476  1556.262833  1981.678040
  6952.006  6952.000  1.000  19.167205  479.718498  36.061986  4.509744  2889.507092  2944.537050  1481.211931  1879.606904
  6962.016  6962.000  1.000  18.544495  479.522004  36.460755  4.593692  2770.241582  2797.435552  1490.230971  1834.585476
  6972.014  6972.000  1.000  17.998915  479.451995  36.870403  4.678503  2700.490944  2744.409592  1398.159724  1786.555334
  6982.009  6982.000  1.000  17.525836  479.206192  37.277816  4.764775  2631.480583  2635.326334  1382.149952  1749.532179
  6992.012  6992.000  1.000  17.551106  478.929725  37.682501  4.850936  2593.665577  2639.344266  1418.196553  1754.540052
  7002.011  7002.000  1.000  16.955721  478.698950  38.097341  4.938550  2535.791784  2526.251237  1360.146079  1694.496901
  7012.013  7012.000  1.000  17.039427  478.539298  38.515675  5.028430  2526.034792  2526.283128  1432.225182  1669.492321
  7022.006  7022.000  1.000  16.457569  478.221323  38.921128  5.116704  2351.420369  2485.262770  1318.134389  1715.543114
  7032.007  7032.000  1.000  16.116095  477.747087  39.324210  5.205985  2392.648518  2386.181537  1313.131988  1607.455273
  7042.010  7042.000  1.000  15.555067  477.554743  39.737416  5.295713  2282.725456  2276.102037  1300.136729  1569.431993
  7052.003  7052.000  1.000  15.035134  477.258850  40.156027  5.386822  2245.168145  2228.062322  1266.105044  1436.315076
  7061.995  7062.000  1.000  15.144374  473.108384  40.240459  5.433054  2255.446055  2140.993050  1254.103347  1514.387959
  7072.005  7072.000  1.000  15.247689  476.151195  40.938675  5.554426  2218.576789  2273.137118  1254.103347  1514.387959
  7081.998  7082.000  1.000  14.526430  475.864988  41.369745  5.634833  2151.202032  2032.922357  1244.108052  1484.386848
  7083.990  7084.000  1.000  14.734282  474.082934  41.305940  5.627990  2117.748826  2082.974764  1285.146514  1499.401513
  7085.998  7086.000  1.000  14.661124  475.156134  41.484471  5.657725  2138.841738  2121.007932  1283.147281  1423.326063
  7087.995  7088.000  1.000  14.646418  475.282215  41.586631  5.673943  2078.640197  2110.002287  1277.141193  1495.398332
  7090.000  7090.000  1.000  14.883281  475.199833  41.661474  5.683779  2159.947246  2104.001747  1310.177165  1498.406295
  7092.001  7092.000  1.000  14.835421  475.114047  41.742131  5.693642  2159.947246  2104.001747  1286.161648  1498.406295
  7094.001  7094.000  1.000  14.752553  475.117159  41.830786  5.703864  2076.570219  2097.001536  1309.182260  1526.436839
  7096.003  7096.000  1.000  14.657764  474.974507  41.909628  5.707989  2129.545946  2030.939751  1294.162695  1507.415995
  7097.997  7098.000  1.000  14.760811  474.918765  41.993618  5.710307  2173.644141  2044.959890  1288.163231  1503.418912
  7100.005  7100.000  1.000  14.639293  474.907256  42.082398  5.708709  2098.722170  2107.029280  1256.141239  1490.413568
  7101.999  7102.000  1.000  14.979389  474.840804  42.163470  5.695731  2083.081294  2107.029280  1432.301070  1490.413568
  7102.295  7102.300  1.000  15.136729  474.620666  42.154644  5.690660  2168.474564  2112.034602  1374.245963  1529.449176
  7102.587  7102.600  1.000  15.062940  474.683056  42.174747  5.689187  2115.373909  2196.113759  1329.203098  1509.431454
  7102.889  7102.900  1.000  15.390646  474.618264  42.185896  5.685320  2244.909165  2117.037596  1387.255747  1555.479148
  7103.186  7103.200  1.000  14.919210  474.746622  42.207674  5.683364  2123.177612  2055.974095  1355.230383  1548.462410
  7103.486  7103.500  1.000  15.383428  474.646026  42.216040  5.677154  2130.787036  2218.141033  1366.248857  1586.505856
  7103.785  7103.800  1.000  15.041052  474.673782  42.227549  5.672288  2093.824951  2147.070984  1367.239885  1531.457454
  7104.091  7104.100  1.000  15.363668  474.662496  42.242323  5.668347  2141.706458  2253.161345  1338.214734  1559.474370
  7104.386  7104.400  1.000  15.265953  474.549245  42.247954  5.661828  2205.676291  2102.031640  1330.209663  1606.529018
  7104.690  7104.700  1.000  15.203366  474.720162  42.276465  5.657683  2118.526050  2131.057723  1419.290049  1548.470373
  7104.992  7105.000  1.000  15.944342  474.588991  42.277982  5.649174  2226.965859  2263.176015  1450.318851  1626.548621
  7105.283  7105.300  1.000  15.375746  474.616064  42.297094  5.641863  2240.805234  2043.966909  1450.318851  1562.484951
  7105.594  7105.600  1.000  15.266965  474.639831  42.305298  5.633449  2169.526933  2123.042579  1413.280736  1540.459262
  7105.891  7105.900  1.000  15.683683  474.636951  42.322345  5.624162  2150.048164  2218.140950  1460.328848  1615.537471
  7106.195  7106.200  1.000  15.850409  474.352367  42.310906  5.607945  2269.705743  2167.097452  1459.330877  1622.544890
  7106.495  7106.500  1.000  15.872299  474.347757  42.323845  5.596610  2230.001571  2198.105263  1505.369815  1595.512650
  7106.795  7106.800  1.000  15.630560  474.289003  42.336068  5.582842  2157.424477  2262.186771  1428.302204  1565.489450
  7107.099  7107.100  1.000  16.213970  474.248801  42.344617  5.566277  2288.348242  2285.207082  1497.361255  1618.539235
  7107.401  7107.400  1.000  16.245667  474.285529  42.358612  5.548015  2247.907228  2320.247014  1427.303810  1709.626607
  7107.700  7107.700  1.000  16.253068  474.109962  42.357117  5.524400  2277.601813  2250.173077  1427.303810  1750.662915
  7108.000  7108.000  1.000  16.567396  473.967399  42.360215  5.497795  2348.203676  2284.202771  1506.371235  1713.627736
  7108.300  7108.300  1.000  16.744415  474.097801  42.392023  5.471414  2348.203676  2275.192632  1566.429841  1748.664164
  7108.602  7108.600  1.000  16.605123  474.149553  42.400168  5.435081  2240.981349  2306.229374  1616.473601  1709.627420
  7108.894  7108.900  1.000  17.145894  473.923579  42.394196  5.392453  2394.431639  2319.236469  1659.509951  1752.665409
  7109.196  7109.200  1.000  16.903562  474.049518  42.418897  5.344024  2294.707319  2361.281116  1604.463897  1752.673216
  7109.496  7109.500  1.000  16.890391  474.004504  42.433617  5.279546  2294.707319  2354.277086  1604.463897  1752.673216
  7109.794  7109.800  1.000  18.216663  473.777194  42.432733  5.188958  2463.790095  2429.354409  1833.675365  1903.819485
  7110.102  7110.100  1.000  18.713085  473.876169  42.449403  5.065544  2503.678117  2594.498048  1840.673867  1928.834881
  7110.398  7110.400  1.000  19.760067  473.725648  42.448744  4.891298  2669.467696  2630.565426  1993.841442  2066.976086
  7110.700  7110.700  1.000  21.125656  473.578914  42.437909  4.642510  2764.762992  2883.808613  2064.895295  2291.198353
  7111.000  7111.000  1.000  22.963728  473.486566  42.437683  4.316281  2878.398953  3018.939957  2325.132937  2650.544927
  7111.300  7111.300  1.000  25.630802  473.366559  42.433161  3.916414  3204.257164  3345.256105  2774.560163  2808.691154
  7111.605  7111.600  1.000  27.921479  473.330217  42.441445  3.493827  3353.632814  3554.483616  3099.867618  3208.095901
  7111.903  7111.900  1.000  31.210280  473.348162  42.448098  3.124011  3782.813954  3869.781696  3513.244314  3607.488496
  7112.201  7112.200  1.000  33.182596  473.145184  42.442164  2.831889  3959.926290  4184.104973  3725.447025  3830.707033
  7112.499  7112.500  1.000  35.156262  473.129253  42.452176  2.615529  4183.476206  4410.338671  3984.702944  4054.938369
  7112.802  7112.800  1.000  36.658919  472.999415  42.455885  2.450524  4391.181744  4560.485408  4220.923781  4167.056067
  7113.104  7113.100  1.000  38.025053  472.853977  42.447147  2.315846  4477.284637  4732.656046  4320.020492  4450.336197
  7113.396  7113.400  1.000  39.122660  472.971001  42.466745  2.204929  4520.327162  4910.875210  4602.319749  4470.361688
  7113.696  7113.700  1.000  40.729231  472.834267  42.472973  2.099751  4801.175033  5013.964012  4645.352009  4797.684952
  7113.997  7114.000  1.000  41.312125  472.855045  42.495853  2.004163  4836.368811  5007.979685  4722.445840  4967.852425
  7114.299  7114.300  1.000  42.328356  472.888373  42.505208  1.920005  4965.996638  5217.174067  4876.575398  4956.841484
  7114.608  7114.600  1.000  43.278120  472.829396  42.509731  1.847325  4888.023789  5319.284909  5158.860433  5096.998321
  7114.907  7114.900  1.000  44.192013  472.694118  42.503683  1.792725  5070.896384  5410.391929  5088.783023  5319.233208
  7115.201  7115.200  1.000  44.977230  472.791172  42.524342  1.753371  5215.264247  5497.451892  5256.948905  5295.172338
  7115.503  7115.500  1.000  45.615720  472.739948  42.528144  1.725193  5332.603243  5630.594841  5301.983878  5299.190969
  7115.808  7115.800  1.000  46.038320  472.815455  42.550701  1.705759  5332.603243  5556.530762  5293.997481  5584.497673
  7116.107  7116.100  1.000  45.227585  472.751913  42.557143  1.689225  5269.704634  5589.573434  5268.980583  5253.168540
  7116.407  7116.400  1.000  45.602035  472.620510  42.556453  1.673300  5253.557450  5628.621163  5334.036144  5336.242472
  7116.706  7116.700  1.000  46.454517  472.584494  42.571519  1.651680  5439.580970  5446.418097  5556.244831  5511.440426
  7117.002  7117.000  1.000  46.542515  472.372780  42.554659  1.618112  5400.263401  5653.628894  5418.110036  5513.415084
  7117.303  7117.300  1.000  47.731413  472.572334  42.591195  1.571162  5470.892435  5802.779351  5564.235681  5718.637805
  7117.603  7117.600  1.000  48.734638  472.492584  42.589178  1.505584  5746.878519  5865.848691  5673.366877  5740.661168
  7117.898  7117.900  1.000  49.830692  472.274087  42.579956  1.426652  5785.383502  6103.099667  5944.636273  5700.624964
  7118.201  7118.200  1.000  51.494252  472.266058  42.588513  1.335693  5795.808632  6207.231284  6228.920683  6087.026857
  7118.499  7118.500  1.000  53.219769  472.137479  42.591086  1.241106  6034.392418  6440.424565  6350.013320  6302.217469
  7118.804  7118.800  1.000  54.025822  472.176392  42.602153  1.149289  6141.671846  6447.480685  6354.035714  6566.529363
  7119.107  7119.100  1.000  55.146046  472.060042  42.603557  1.061739  6141.671846  6447.480685  6576.256667  6866.835695
  7119.412  7119.400  1.000  58.028840  471.868145  42.595291  0.979623  6541.365516  6930.987822  7035.739553  6873.868387
  7119.705  7119.700  1.000  59.960288  472.047677  42.620774  0.906138  6743.838810  7135.176739  7242.927969  7182.171327
  7120.006  7120.000  1.000  62.694032  471.950555  42.622823  0.832663  6845.921258  7493.597009  7601.280335  7647.684605
  7120.311  7120.300  1.000  64.677363  473.673096  42.784996  0.766197  7296.653504  7715.871829  7877.606144  7745.795098
  7120.610  7120.600  1.000  67.471083  473.517056  42.778824  0.701239  7579.367614  7983.137212  8265.015537  8121.188210
  7120.909  7120.900  1.000  69.516659  473.529666  42.787976  0.643722  7617.868381  8248.445687  8536.263445  8515.622836
  7121.207  7121.200  1.000  71.358798  473.328647  42.788917  0.592699  7764.042509  8515.724573  8749.514613  8746.881716
  7121.511  7121.500  1.000  72.754516  473.259247  42.795278  0.550083  8135.397573  8531.729773  8968.712342  8795.907639
  7121.838  7121.800  1.000  74.127505  473.241736  42.796129  0.511690  8160.057406  8834.112608  9201.009652  8885.049558
  7122.085  7122.100  1.000  75.869984  473.482605  42.826511  0.486205  8358.317777  8757.012608  9423.228192  9384.559255
  7122.408  7122.400  1.000  77.725611  473.288348  42.818785  0.457644  8605.213595  9010.256913  9728.518529  9442.637063
  7122.722  7122.700  1.000  80.484156  473.119090  42.816590  0.431326  8967.162826  9521.827836  9805.609645  9783.990214
  7123.023  7123.000  1.000  82.417717  473.188819  42.833494  0.410598  8920.541339  9742.121090  10089.952503  10246.527310
  7123.363  7123.300  1.000  85.013705  473.339861  42.852618  0.393871  9202.621151  10207.654495  10489.397118  10340.702655
  7123.666  7123.600  1.000  86.275880  473.150746  42.852522  0.377184  9319.420922  10150.538924  10796.671728  10554.865471
  7123.939  7123.900  1.000  88.599298  472.834210  42.825678  0.363570  9683.968707  10606.044074  10874.734751  10728.031530
  7124.239  7124.200  1.000  90.727202  472.683665  42.826683  0.350646  10075.661408  10342.808493  11203.104266  11263.692024
  7124.544  7124.500  1.000  91.879658  472.855067  42.852582  0.338891  10035.465885  10706.206320  11407.363760  11296.725891
  7124.818  7124.800  1.000  94.090504  472.563602  42.838116  0.328106  10202.681209  10992.465966  11761.679967  11506.920194
  7125.110  7125.100  1.000  95.127545  472.653926  42.858675  0.318073  10379.014217  11136.623990  11802.705807  11644.063427
  7125.416  7125.400  1.000  96.393558  472.612999  42.857958  0.308097  10477.745148  11327.908747  11907.872478  11843.322269
  7125.700  7125.700  1.000  97.505484  472.523321  42.862609  0.299043  10621.943881  11305.954634  12087.088178  12058.628281
  7126.010  7126.000  1.000  98.911833  472.492870  42.869581  0.290362  10621.943881  11607.194373  12463.420922  12042.576698
  7126.301  7126.300  1.000  100.697038  472.504532  42.877143  0.281628  10658.583177  11764.407627  12672.712507  12484.103349
  7126.602  7126.600  1.000  102.260424  472.342528  42.864968  0.272693  11123.517030  11995.638155  12762.831146  12419.960884
  7126.902  7126.900  1.000  104.066504  472.048686  42.847015  0.263450  11198.081346  12307.042234  12893.989923  12725.343035
  7127.206  7127.200  1.000  105.631974  472.029923  42.860762  0.253987  11324.316796  12340.132060  13258.369775  12938.633798
  7127.509  7127.500  1.000  107.633214  472.046642  42.871409  0.244007  11419.787611  12434.210572  13540.759818  13413.139330
  7127.807  7127.800  1.000  109.889138  472.120380  42.888720  0.233815  11888.286235  12704.452586  13726.895773  13561.266999
  7128.104  7128.100  1.000  111.580382  471.965301  42.877100  0.223726  12087.557502  12931.812469  13978.241069  13664.457375
  7128.403  7128.400  1.000  114.384895  471.835647  42.873198  0.213089  12247.039058  13521.456973  14188.489678  14013.885062
  7128.705  7128.700  1.000  115.444547  471.575848  42.866248  0.202704  12519.937709  13237.132956  14520.751307  14163.038354
  7129.007  7129.000  1.000  116.564501  471.554446  42.880875  0.192641  12585.172349  13548.504521  14616.751447  14216.080458
  7129.304  7129.300  1.000  117.875372  471.471540  42.885339  0.183281  12589.709287  13675.668864  14806.090963  14503.414269
  7129.600  7129.600  1.000  119.544837  471.544032  42.908400  0.174909  12985.011945  13685.692960  15018.296363  14681.653253
  7129.903  7129.900  1.000  120.579044  471.359537  42.901429  0.167297  12824.646269  13805.825731  15225.628578  14979.981810
  7130.199  7130.200  1.000  121.278930  470.953927  42.868111  0.161106  12771.055769  14140.193284  15114.449464  15091.089974
  7130.503  7130.500  1.000  121.103949  471.137954  42.896687  0.156425  12771.055769  14140.193284  15054.327604  15091.089974
  7130.803  7130.800  1.000  120.880189  470.828662  42.878688  0.153325  12947.505308  14168.226948  15033.386335  14764.738884
  7131.098  7131.100  1.000  121.109963  470.742049  42.886099  0.151990  12935.230079  13917.906426  15243.534155  14914.881221
  7131.404  7131.400  1.000  120.161849  470.825329  42.901193  0.152370  12619.759448  14147.228607  15054.483765  14753.770347
  7131.708  7131.700  1.000  119.855954  470.704575  42.902934  0.155171  12646.748313  13681.666576  15280.583562  14807.747340
  7132.006  7132.000  1.000  119.159085  470.502958  42.906392  0.159147  12587.796636  13806.808320  14933.347228  14736.749574
  7132.304  7132.300  1.000  117.810190  470.555130  42.924913  0.164843  12580.081760  13589.596926  14773.117001  14493.393655
  7132.606  7132.600  1.000  117.673621  470.463205  42.928857  0.171385  12580.081760  13589.596926  14773.117001  14418.313370
  7132.906  7132.900  1.000  117.891498  470.561408  42.957228  0.178965  12837.380270  13651.645144  14805.118842  14181.044887
  7133.203  7133.200  1.000  117.303835  470.350256  42.954965  0.186925  12497.962141  13539.518087  14672.026212  14464.382550
  7133.501  7133.500  1.000  116.531426  470.551652  42.989233  0.195443  12483.571597  13488.414394  14594.881893  14267.187282
  7133.799  7133.800  1.000  115.151687  470.427432  42.992852  0.203564  12435.718033  13126.035177  14400.680813  14208.078363
  7134.097  7134.100  1.000  114.678949  470.354938  43.004835  0.211454  12196.889314  13126.084288  14438.722482  14178.113732
  7134.405  7134.400  1.000  111.398589  470.570498  43.037612  0.218993  12133.577349  12802.715229  13656.914213  13827.682618
  7134.699  7134.700  1.000  112.249492  470.516140  43.044424  0.225433  12133.577349  12949.832201  13845.088799  13886.699283
  7134.997  7135.000  1.000  111.719879  470.520951  43.055656  0.231730  11962.814004  12801.723127  13927.217986  13874.788482
  7135.304  7135.300  1.000  112.048250  470.493732  43.071590  0.237094  12135.706942  12916.762811  13963.050007  13702.479448
  7135.602  7135.600  1.000  112.233391  470.451964  43.085349  0.241668  11981.624020  13055.953877  13932.150574  13830.690825
  7135.906  7135.900  1.000  110.450191  470.249796  43.085569  0.245085  11772.037956  12797.685365  13658.909587  13710.546928
  7136.204  7136.200  1.000  110.312998  470.307041  43.110089  0.248077  11753.909636  12797.685365  13909.185320  13420.199615
  7136.500  7136.500  1.000  110.135834  470.312094  43.131506  0.249786  11807.347282  12916.820998  13619.823135  13454.223169
