# XDI/1.0 BlueSky/1.11.0 BMM/2023-2.1-py310-tiled
# Beamline.name: BMM (06BM) -- Beamline for Materials Measurement (NIST)
# Beamline.xray_source: NSLS-II three-pole wiggler
# Beamline.collimation: paraboloid mirror, 5 nm Rh on 30 nm Pt
# Beamline.focusing: not in use
# Beamline.harmonic_rejection: flat mirror, Si stripe, pitch = 7.0 mrad relative to beam
# Beamline.software: Bluesky 1.11.0, Ophyd 1.8.0, DataBroker 2.0.0b23, Python 3.10.8, 2023-2.1-py310-tiled
# Detector.I0: 10 cm N2
# Detector.I1: 25 cm N2
# Detector.I2: 25 cm N2
# Detector.fluorescence: SII Vortex ME4 (4-element silicon drift)
# Detector.deadtime_correction: Xspress3
# Element.symbol: Mn
# Element.edge: K
# Element.reference: Mn
# Element.reference_material: Mn metal powder
# Facility.name: NSLS-II
# Facility.energy: 3.0
# Facility.current: 400.1
# Facility.mode: top-off
# Facility.GUP: 315355
# Facility.SAF: 313563
# Facility.cycle: 2024-1
# Mono.name: Si(111)
# Mono.d_spacing: 3.1354173
# Mono.encoder_resolution: 0.0000050 deg/ct
# Mono.angle_offset: 16.0891518 deg
# Mono.scan_mode: pseudo channel cut
# Mono.scan_type: step
# Mono.direction: forward in energy
# Sample.name: Ca2Fe0.75Mn0.25FeSi5O14(OH)
# Sample.prep: PEG pellet
# Sample.x: 90.051 mm
# Sample.y: 81.516 mm
# Sample.SDD_position: 40.000 mm
# Scan.experimenters: XAS course 2024
# Scan.edge_energy: 6539.0
# Scan.start_time: 2024-03-21T10:50:45
# Scan.end_time: 2024-03-21T11:00:20
# Scan.transient_id: 5313
# Scan.uid: 0e591873-3d5a-4561-8663-dd8fece96319
# Scan.hdf5file: 2024/03/21/b30bf535-52d3-40f7-b9c4_000000.h5
# Scan.plot_hint: (Mn1+Mn2+Mn3+Mn4)/I0  --  ($8+$9+$10+$11)/$5
# Column.1: energy eV
# Column.2: requested_energy eV
# Column.3: measurement_time seconds
# Column.4: xmu 
# Column.5: I0 nA
# Column.6: It nA
# Column.7: Ir nA
# Column.8: Mn1 
# Column.9: Mn2 
# Column.10: Mn3 
# Column.11: Mn4 
# ///////////
# Babingtonite, CM14452; Lane's Quarry, Westfield, Hampden County, Massachusetts
# -----------
# energy  requested_energy  measurement_time  xmu  I0  It  Ir  Mn1  Mn2  Mn3  Mn4
  6339.004  6339.000  1.000  3.002167  426.708916  0.201174  0.000886  434.793091  409.125929  182.053879  255.078717
  6349.008  6349.000  1.000  2.784577  427.493739  0.206533  0.000708  384.140858  394.121557  185.055431  227.071258
  6359.034  6359.000  1.000  2.769456  427.924246  0.212617  0.000892  400.876048  376.116149  177.052994  231.072155
  6369.021  6369.000  1.000  2.679249  428.382418  0.218741  0.001028  375.501610  374.117464  182.055566  216.068618
  6379.016  6379.000  1.000  2.712662  428.866784  0.224802  0.000995  391.125634  350.111690  192.059589  230.073701
  6389.012  6389.000  1.000  2.608308  429.254188  0.230850  0.000918  350.383776  357.113772  192.059462  220.070329
  6399.011  6399.000  1.000  2.557165  429.559061  0.237346  0.001205  343.212792  343.110095  193.059924  219.070653
  6409.009  6409.000  1.000  2.516320  429.763108  0.243778  0.001026  363.191253  355.114222  144.045045  219.071045
  6419.005  6419.000  1.000  2.319562  430.319767  0.250531  0.001097  353.944389  310.100779  143.045639  191.062549
  6429.010  6429.000  1.000  2.427670  430.400809  0.256829  0.000902  329.636611  314.103603  170.054247  231.076596
  6439.010  6439.000  1.000  2.423686  430.699958  0.263798  0.001241  339.649450  307.101754  198.063868  199.066381
  6449.003  6449.000  1.000  2.445618  429.217623  0.269556  0.001339  341.468331  311.103100  168.054349  229.076672
  6459.005  6459.000  1.000  2.388459  427.160866  0.273253  0.001389  340.030531  328.109740  154.049777  198.066271
  6468.950  6469.000  1.000  2.276399  431.218626  0.283987  0.001374  310.400390  314.105893  161.052316  196.067016
  6478.989  6479.000  1.000  2.441288  431.156655  0.291725  0.001569  363.344164  292.099350  170.055778  227.078339
  6488.985  6489.000  1.000  2.575749  431.319067  0.299937  0.001355  325.701703  348.119579  180.059393  257.089011
  6498.993  6499.000  1.000  2.607683  431.688701  0.307430  0.001611  343.438354  339.117436  210.070174  233.081529
  6508.993  6509.000  1.000  2.621907  431.845250  0.315281  0.001712  308.972612  349.121114  223.075481  251.088741
  6510.987  6511.000  1.000  2.708492  431.861012  0.316578  0.001769  371.416388  349.121796  217.072272  232.081635
  6512.992  6513.000  1.000  2.780443  432.009186  0.318147  0.001731  352.885300  348.119710  242.080949  258.090855
  6514.985  6515.000  1.000  2.875293  432.119738  0.319262  0.001366  361.165438  349.121643  274.092441  258.091245
  6516.994  6517.000  1.000  2.939284  432.252070  0.320620  0.001709  405.210277  344.120429  259.088080  262.092706
  6518.992  6519.000  1.000  3.002389  432.130710  0.322528  0.001834  381.102742  361.127695  274.094237  281.099615
  6520.996  6521.000  1.000  3.242642  432.226359  0.324345  0.001691  396.200811  438.155392  276.094849  291.104234
  6522.992  6523.000  1.000  3.290109  432.180245  0.326050  0.001803  430.570645  403.143474  294.100748  294.105088
  6524.990  6525.000  1.000  3.478106  432.117006  0.327662  0.001787  430.570645  403.143474  294.100748  375.134097
  6526.999  6527.000  1.000  3.716524  432.145250  0.329267  0.001758  462.676002  454.161034  365.125398  324.115811
  6528.994  6529.000  1.000  4.144040  432.272644  0.330734  0.001635  481.893018  518.184247  373.128221  418.149688
  6529.284  6529.300  1.000  4.042761  432.277684  0.331053  0.001616  492.151480  497.177387  372.127673  386.138923
  6529.582  6529.600  1.000  4.075535  432.147299  0.331292  0.001508  471.778216  507.179066  377.129535  405.144804
  6529.885  6529.900  1.000  4.102038  432.037239  0.332320  0.001673  471.778216  507.179066  381.129437  412.146312
  6530.186  6530.200  1.000  4.229766  432.122927  0.332206  0.001610  500.310116  512.182516  403.138645  412.147596
  6530.488  6530.500  1.000  4.417064  432.046498  0.332357  0.001787  488.877412  586.207422  434.149098  399.143168
  6530.791  6530.800  1.000  4.436328  432.161230  0.331918  0.001568  540.722967  549.195493  401.137866  426.152611
  6531.089  6531.100  1.000  4.425231  432.011791  0.332647  0.001668  555.272539  521.185809  410.140879  425.152598
  6531.388  6531.400  1.000  4.435633  432.200103  0.332415  0.001568  540.598565  550.194115  422.144368  404.144052
  6531.688  6531.700  1.000  4.491899  431.938888  0.332813  0.001438  483.715862  622.220025  433.147254  401.142807
  6531.986  6532.000  1.000  4.558261  432.033575  0.333074  0.001729  550.822083  524.185758  422.145102  472.169019
  6532.289  6532.300  1.000  4.847035  432.475296  0.333083  0.001719  567.681073  611.218770  479.165612  438.157491
  6532.589  6532.600  1.000  4.861208  433.964155  0.334470  0.001629  579.047888  587.210280  473.162573  470.169344
  6532.891  6532.900  1.000  4.824417  433.786193  0.335104  0.001806  562.223716  590.210757  448.153801  492.177061
  6533.194  6533.200  1.000  4.888745  433.727154  0.335532  0.001447  568.831855  598.213069  490.170420  463.166312
  6533.494  6533.500  1.000  4.976682  433.783216  0.335485  0.001565  545.228435  603.215778  529.182999  481.173758
  6533.796  6533.800  1.000  5.081812  433.626865  0.336210  0.001612  579.030661  625.224080  506.176618  493.178809
  6534.098  6534.100  1.000  5.223373  433.792218  0.335906  0.001355  666.294428  607.215091  495.169776  497.179072
  6534.399  6534.400  1.000  5.199603  433.785743  0.336223  0.001433  594.926282  635.225886  499.172146  526.189264
  6534.699  6534.700  1.000  5.220440  433.739940  0.336689  0.001515  587.722563  643.228636  531.181638  502.180673
  6534.999  6535.000  1.000  5.611474  433.924279  0.336349  0.001389  665.326996  675.241466  556.191351  538.194975
  6535.298  6535.300  1.000  5.832715  433.930574  0.336552  0.001671  665.326996  662.237296  595.208629  608.220549
  6535.596  6535.600  1.000  5.903295  433.862877  0.336725  0.001646  677.550843  700.249236  595.208629  588.212007
  6535.894  6535.900  1.000  6.063152  433.773885  0.337411  0.001279  655.329018  744.268625  634.222525  596.217031
  6536.200  6536.200  1.000  6.247670  433.789687  0.337545  0.001532  695.454170  775.280089  648.225226  591.215129
  6536.502  6536.500  1.000  6.626622  433.833003  0.337519  0.001313  798.105176  784.282008  676.236683  616.223405
  6536.800  6536.800  1.000  6.614569  433.722340  0.337826  0.001030  713.115329  804.289041  685.239106  666.242796
  6537.102  6537.100  1.000  6.924191  433.803995  0.337860  0.001041  811.958567  832.299909  677.236077  682.247162
  6537.404  6537.400  1.000  7.094385  433.832293  0.337925  0.000813  811.958567  852.309996  725.253495  688.251350
  6537.704  6537.700  1.000  7.664044  433.653618  0.338397  0.000558  866.660980  924.334205  747.260412  785.284794
  6538.003  6538.000  1.000  8.417475  433.624943  0.338720  0.000492  917.043358  1015.369264  917.321729  800.292668
  6538.303  6538.300  1.000  9.558264  433.640845  0.338702  0.000366  1116.765935  1128.408893  983.345561  916.333306
  6538.602  6538.600  1.000  10.926292  433.374936  0.339183  0.000054  1197.903648  1292.471429  1108.388200  1136.417720
  6538.899  6538.900  1.000  12.194986  433.498174  0.339338  0.000210  1370.083693  1414.517678  1299.460156  1202.442485
  6539.197  6539.200  1.000  13.079040  433.554845  0.339105  -0.000056  1436.926669  1562.579307  1330.476062  1340.499186
  6539.496  6539.500  1.000  13.827173  433.722400  0.338907  -0.000022  1517.515878  1586.583803  1406.500469  1486.554505
  6539.798  6539.800  1.000  14.323461  433.720968  0.338905  -0.000042  1561.678148  1699.631052  1509.539851  1441.536379
  6540.100  6540.100  1.000  14.604860  433.721391  0.339183  -0.000209  1561.678148  1721.640902  1565.565249  1485.555804
  6540.401  6540.400  1.000  14.053558  433.570331  0.339352  -0.000116  1500.521613  1651.610084  1517.542067  1423.531957
  6540.707  6540.700  1.000  13.266267  433.622978  0.339882  -0.000014  1479.000300  1563.577273  1425.504434  1284.476092
  6541.004  6541.000  1.000  13.208365  433.397749  0.340394  -0.000026  1462.918612  1594.589639  1396.498115  1270.469217
  6541.303  6541.300  1.000  12.991098  433.449581  0.340294  -0.000158  1359.414635  1561.581142  1336.477558  1373.512528
  6541.596  6541.600  1.000  13.926522  433.582103  0.340596  -0.000024  1520.639211  1626.599402  1477.526204  1413.526027
  6541.897  6541.900  1.000  14.723652  433.392639  0.340931  -0.000166  1604.373809  1712.634724  1575.560842  1488.553129
  6542.194  6542.200  1.000  15.301474  433.567192  0.340403  0.000083  1604.373809  1712.634724  1751.627150  1565.581302
  6542.504  6542.500  1.000  17.046241  433.648959  0.340387  0.000131  1935.076007  1876.698695  1853.662895  1726.647192
  6542.804  6542.800  1.000  19.103184  433.633544  0.340318  -0.000029  2018.448516  2243.843994  2095.760973  1925.728023
  6543.105  6543.100  1.000  20.991942  433.507322  0.340529  -0.000080  2303.630496  2468.927329  2235.808498  2091.794178
  6543.404  6543.400  1.000  24.616626  433.586515  0.340020  0.000064  2603.405993  2932.109987  2690.986956  2446.934181
  6543.705  6543.700  1.000  27.321811  433.639070  0.339761  -0.000167  2946.422248  2932.109987  3056.142848  2913.129788
  6544.002  6544.000  1.000  34.302312  433.589687  0.339936  -0.000131  3686.798677  3973.553113  3649.377233  3563.399841
  6544.300  6544.300  1.000  41.564511  433.552849  0.338828  -0.000016  4447.033735  4752.906272  4585.768908  4234.703361
  6544.597  6544.600  1.000  51.415111  433.524875  0.337971  0.000194  5386.889651  5920.413086  5641.225187  5341.201449
  6544.898  6544.900  1.000  62.867927  433.579391  0.337053  -0.000184  6646.701156  7151.994451  6952.804508  6506.737310
  6545.195  6545.200  1.000  76.837136  433.566941  0.335318  -0.000380  8071.183801  8909.850615  8360.530661  7972.477006
  6545.500  6545.500  1.000  93.951443  433.443844  0.333659  -0.000022  9762.761570  10865.916148  10476.649287  9617.347774
  6545.799  6545.800  1.000  107.159938  433.475658  0.331369  -0.000210  11564.178088  12954.062501  12315.636266  9617.347774
  6546.104  6546.100  1.000  128.164219  433.321798  0.329374  -0.000363  13554.969884  14620.167720  14084.716667  13276.495377
  6546.405  6546.400  1.000  143.835952  433.456074  0.327058  -0.000172  14827.950368  16676.358816  15939.770858  14902.487029
  6546.706  6546.700  1.000  157.348859  433.525750  0.325093  -0.000103  16277.130983  18309.473550  17303.705950  16324.471607
  6546.998  6547.000  1.000  169.106445  433.426369  0.323568  -0.000269  17643.976536  19495.336671  18545.527326  17610.351782
  6547.303  6547.300  1.000  179.778028  433.375643  0.322527  -0.000264  18721.776280  20847.195987  19825.468866  18516.977205
  6547.596  6547.600  1.000  188.371356  433.313846  0.321273  -0.000217  19553.211938  21763.859671  20888.244694  19418.600642
  6547.902  6547.900  1.000  197.572971  433.418966  0.319567  -0.000293  20437.663503  23017.843957  21828.960938  20347.404496
  6548.198  6548.200  1.000  205.093461  433.387471  0.318676  -0.000251  21206.843932  23855.541001  22655.594278  21166.957246
  6548.503  6548.500  1.000  212.460111  433.402019  0.317962  -0.000306  22090.721992  24695.213948  23379.126830  21915.578479
  6548.804  6548.800  1.000  218.808518  433.260583  0.317367  -0.000201  22590.158299  25540.881075  24039.867735  22630.199098
  6549.100  6549.100  1.000  227.768284  433.358559  0.316458  -0.000251  23465.081249  26509.599574  25440.937686  23289.716806
  6549.402  6549.400  1.000  239.235954  433.459372  0.314939  -0.000383  24850.976666  27900.696474  26487.711890  24459.681351
  6549.705  6549.700  1.000  253.761083  433.484936  0.312995  -0.000080  26194.051043  29492.306243  28287.218475  26028.031032
  6550.005  6550.000  1.000  269.938114  433.229476  0.311606  -0.000256  27793.796279  31580.037929  29827.741938  27743.571437
  6550.301  6550.300  1.000  289.496623  433.395406  0.308843  -0.000215  29866.282782  33510.879253  32418.001652  29671.342799
  6550.599  6550.600  1.000  305.773069  433.491203  0.306689  -0.000213  31541.206144  35486.849825  34008.677471  31513.202138
  6550.902  6550.900  1.000  320.253824  433.483653  0.304519  -0.000297  33120.373687  37149.453412  35689.383943  32865.586523
  6551.202  6551.200  1.000  333.452438  433.449352  0.302540  -0.000383  34408.758604  38562.044044  37255.898040  34308.042281
  6551.503  6551.500  1.000  337.777234  433.404153  0.301691  -0.000113  34765.432282  39087.634469  37752.406934  34788.582112
  6551.800  6551.800  1.000  337.603898  433.286872  0.301470  -0.000206  34766.866908  39158.634248  37198.079642  35155.756309
  6552.103  6552.100  1.000  330.040062  433.154256  0.302564  -0.000058  34107.314881  38308.856424  36464.325908  34077.760355
  6552.398  6552.400  1.000  319.321792  433.181553  0.303972  -0.000252  32962.215165  37117.428686  35325.146125  32919.519479
  6552.701  6552.700  1.000  308.429113  433.139245  0.306240  -0.000414  32071.301254  35953.263509  34005.967691  31562.220520
  6553.001  6553.000  1.000  297.457066  433.279335  0.307579  -0.000415  30610.162792  34446.810678  33022.689772  30802.336526
  6553.303  6553.300  1.000  288.150691  433.344596  0.309417  -0.000170  29913.706931  33067.524892  32133.901953  29753.410804
  6553.599  6553.600  1.000  281.537984  433.182858  0.310893  -0.000561  28899.349482  33067.524892  31075.900671  28914.653615
  6553.899  6553.900  1.000  272.150379  433.254715  0.312136  -0.000323  28263.507669  31456.066611  30438.193234  27752.667394
  6554.199  6554.200  1.000  269.755018  433.145990  0.312891  -0.000165  27959.204819  31097.663052  30033.769278  27752.667394
  6554.499  6554.500  1.000  267.737369  433.030091  0.314157  -0.000406  27870.002015  30924.502538  29409.309181  27734.523411
  6554.798  6554.800  1.000  265.400439  433.177807  0.314570  -0.000365  27316.525596  30803.475112  29511.402252  27334.177184
  6555.107  6555.100  1.000  263.628591  433.196092  0.314723  -0.000506  27206.232303  30707.361375  29465.375393  26823.906147
  6555.403  6555.400  1.000  265.080455  433.101455  0.315551  -0.000021  27289.007383  30858.396045  29438.322092  27221.005006
  6555.707  6555.700  1.000  264.105141  433.163070  0.315291  -0.000037  27223.747679  30798.392208  29317.346110  27061.107739
  6556.002  6556.000  1.000  266.423372  433.049980  0.315545  -0.000135  27560.467290  31069.574609  29578.440728  27166.153434
  6556.301  6556.300  1.000  267.188471  433.047269  0.315843  -0.000249  27740.945287  30985.550333  29565.406732  27413.335211
  6556.595  6556.600  1.000  263.264441  433.157915  0.316028  -0.000316  27312.629404  30538.233743  29421.399824  26762.813447
  6556.898  6556.900  1.000  257.747629  433.182418  0.316396  -0.000351  26536.970627  29979.702838  28438.471576  26696.595982
  6557.196  6557.200  1.000  252.151282  432.986107  0.317555  -0.000242  26212.794979  29212.101644  27974.203831  25778.901435
  6557.504  6557.500  1.000  243.151005  433.156520  0.318830  -0.000329  25159.091595  28333.251763  26922.026725  24908.073160
  6557.802  6557.800  1.000  237.315635  432.901313  0.320681  -0.000077  25159.091595  27452.391136  26178.428625  23944.338806
  6558.108  6558.100  1.000  230.495685  432.883136  0.322191  -0.000163  23740.878296  27452.391136  25082.585562  23501.839682
  6558.405  6558.400  1.000  219.873383  432.989558  0.323439  0.000040  22601.765006  25510.858162  24432.056716  22658.199002
  6558.702  6558.700  1.000  216.490338  433.036996  0.323688  0.000049  22306.227740  25510.858162  23816.487312  22114.752506
  6559.001  6559.000  1.000  208.972016  432.942978  0.325312  -0.000420  21405.640301  24348.905051  23133.055174  21585.366289
  6559.298  6559.300  1.000  204.197048  433.074558  0.325945  -0.000668  21012.530395  23846.532907  22533.571231  21039.912041
  6559.598  6559.600  1.000  200.169042  433.068473  0.326810  -0.000119  20593.998011  23194.020833  22175.221628  20723.660976
  6559.902  6559.900  1.000  194.645011  432.895642  0.328185  -0.000158  20130.332647  22428.478084  21550.879415  20151.286765
  6560.201  6560.200  1.000  190.047363  432.698052  0.328732  -0.000129  19562.785395  21985.119297  21143.424615  19541.794427
  6560.504  6560.500  1.000  187.603968  432.087334  0.329857  -0.000204  19277.722049  21798.964634  20588.041396  19396.570189
  6560.804  6560.800  1.000  185.665172  432.082751  0.329944  -0.000116  18998.629477  21495.679678  20598.036972  19130.372037
  6561.105  6561.100  1.000  183.639463  432.008756  0.330293  -0.000232  18904.223840  21332.564650  20305.873062  18791.194485
  6561.402  6561.400  1.000  181.843853  432.603566  0.330577  -0.000564  18781.166748  21069.335829  20083.681785  18732.114900
  6561.703  6561.700  1.000  182.093745  432.753600  0.331506  -0.000451  18867.281845  21187.545623  20161.762881  18585.133338
  6562.000  6562.000  1.000  181.881222  432.815218  0.331800  -0.000336  18715.590666  21190.458476  20394.901103  18420.010381
  6562.303  6562.300  1.000  182.806200  432.641649  0.332508  -0.000176  18796.988128  21094.402315  20571.041021  18627.144136
  6562.604  6562.600  1.000  180.752354  432.801925  0.332403  -0.000355  18531.744392  20920.372053  20168.704820  18609.145268
  6562.903  6562.900  1.000  182.359091  432.800102  0.332909  -0.000257  18872.303432  21253.641151  20146.889674  18652.198816
  6563.202  6563.200  1.000  182.846984  433.696076  0.334037  -0.000347  19059.300480  21281.639727  20168.840276  18790.239063
  6563.503  6563.500  1.000  183.308824  434.222534  0.334228  -0.000321  19027.969251  21328.652376  20154.745027  19085.455279
  6563.806  6563.800  1.000  185.056421  434.179225  0.334208  -0.000098  19150.376959  21693.836700  20338.914653  19164.525425
  6564.002  6564.000  1.000  184.668354  434.281645  0.333986  -0.000273  19223.949833  21590.789921  20487.026915  18896.310090
