# XDI/1.0 BlueSky/1.11.0 BMM/2023-2.1-py310-tiled
# Beamline.name: BMM (06BM) -- Beamline for Materials Measurement (NIST)
# Beamline.xray_source: NSLS-II three-pole wiggler
# Beamline.collimation: paraboloid mirror, 5 nm Rh on 30 nm Pt
# Beamline.focusing: not in use
# Beamline.harmonic_rejection: flat mirror, Pt stripe, pitch = 7.0 mrad relative to beam
# Beamline.software: Bluesky 1.11.0, Ophyd 1.8.0, DataBroker 2.0.0b23, Python 3.10.8, 2023-2.1-py310-tiled
# Detector.I0: 10 cm N2
# Detector.I1: 25 cm N2
# Detector.I2: 25 cm N2
# Detector.fluorescence: SII Vortex ME4 (4-element silicon drift)
# Detector.deadtime_correction: Xspress3
# Element.symbol: Zn
# Element.edge: K
# Element.reference: Zn
# Element.reference_material: Zn foil
# Facility.name: NSLS-II
# Facility.energy: 3.0
# Facility.current: 400.5
# Facility.mode: top-off
# Facility.GUP: 315355
# Facility.SAF: 313563
# Facility.cycle: 2024-1
# Mono.name: Si(111)
# Mono.d_spacing: 3.1354173
# Mono.encoder_resolution: 0.0000050 deg/ct
# Mono.angle_offset: 16.0891518 deg
# Mono.scan_mode: pseudo channel cut
# Mono.scan_type: step
# Mono.direction: forward in energy
# Sample.name: Ca(Zn,Mn,Fe,Mg)Si2O6
# Sample.prep: powder on tape
# Sample.x: 113.234 mm
# Sample.y: 81.177 mm
# Sample.SDD_position: 53.000 mm
# Scan.experimenters: Bruce Ravel
# Scan.edge_energy: 9658.6
# Scan.start_time: 2024-03-21T14:17:02
# Scan.end_time: 2024-03-21T14:26:59
# Scan.transient_id: 5346
# Scan.uid: 29689920-dc6b-424a-b1d8-14e98cce49f8
# Scan.hdf5file: 2024/03/21/e36c9c17-91e3-42f2-855f_000000.h5
# Scan.plot_hint: (Zn1+Zn2+Zn3+Zn4)/I0  --  ($8+$9+$10+$11)/$5
# Column.1: energy eV
# Column.2: requested_energy eV
# Column.3: measurement_time seconds
# Column.4: xmu 
# Column.5: I0 nA
# Column.6: It nA
# Column.7: Ir nA
# Column.8: Zn1 
# Column.9: Zn2 
# Column.10: Zn3 
# Column.11: Zn4 
# ///////////
# sample courtesy Martin Stennett, University of Sheffield
# -----------
# energy  requested_energy  measurement_time  xmu  I0  It  Ir  Zn1  Zn2  Zn3  Zn4
  9458.629  9458.600  1.000  26.596881  394.119769  131.768049  68.506090  3680.579345  3531.320685  1443.937462  1826.519233
  9468.621  9468.600  1.000  25.196811  393.025844  131.807239  68.692065  3493.821815  3309.973028  1366.826632  1732.376545
  9478.694  9478.600  1.000  24.384849  392.193709  131.945162  68.918238  3380.686639  3158.771205  1371.847437  1652.279077
  9488.657  9488.600  1.000  24.458961  390.813601  131.869351  69.055173  3325.928892  3178.798118  1384.865800  1669.301806
  9498.625  9498.600  1.000  23.711720  390.252412  132.102327  69.304880  3232.867304  3178.798118  1255.694344  1586.196055
  9508.619  9508.600  1.000  22.568646  389.276080  132.175919  69.495664  3062.170660  2939.455700  1204.621651  1579.186152
  9518.630  9518.600  1.000  21.986950  388.200906  132.206418  69.671821  3012.367639  2762.204213  1181.595971  1579.186152
  9528.631  9528.600  1.000  21.566152  387.036000  132.198390  69.829176  2938.008539  2760.219271  1169.587192  1479.062077
  9538.631  9538.600  1.000  21.180287  386.146473  132.280915  70.032156  2870.972521  2724.158257  1176.599842  1406.962348
  9548.636  9548.600  1.000  20.488030  385.136706  132.319873  70.207215  2810.269352  2576.954175  1066.453927  1437.014862
  9558.631  9558.600  1.000  20.145989  384.368266  132.456546  70.421184  2810.269352  2576.954175  1050.430467  1305.824764
  9568.616  9568.600  1.000  18.942164  383.509180  132.547245  70.615148  2556.590161  2428.742845  1010.378817  1268.782104
  9578.614  9578.600  1.000  18.989719  382.443709  132.561595  70.777760  2556.590161  2428.742845  1053.442535  1223.723129
  9588.618  9588.600  1.000  18.278671  381.402871  132.577571  70.933836  2434.849160  2347.635607  984.351814  1204.701042
  9598.615  9598.600  1.000  17.903391  380.403516  132.607525  71.093381  2408.010697  2293.561586  934.284715  1174.655858
  9608.582  9608.600  1.000  17.935737  379.717484  132.762859  71.275266  2408.010697  2293.561586  934.284715  1174.655858
  9618.594  9618.600  1.000  17.491181  378.519334  132.718516  71.379673  2350.439310  2169.375820  947.302248  1153.632914
  9628.592  9628.600  1.000  17.132840  377.264739  132.635559  71.436792  2242.379199  2100.265651  891.229187  1229.742242
  9630.590  9630.600  1.000  17.138840  376.931380  132.578261  71.427832  2279.968179  2110.293667  941.299880  1128.604810
  9632.582  9632.600  1.000  16.726098  376.813845  132.622813  71.452662  2226.566521  2111.303054  914.265289  1050.490440
  9634.582  9634.600  1.000  16.762542  376.476643  132.581322  71.421485  2244.666987  2026.171820  902.246999  1137.619562
  9636.584  9636.600  1.000  17.024392  376.278967  132.580730  71.402930  2242.753295  2114.298941  914.260048  1134.608184
  9638.578  9638.600  1.000  17.197512  376.314859  132.675541  71.448921  2250.392729  2167.395306  879.219767  1174.671591
  9640.581  9640.600  1.000  17.312923  375.995040  132.640656  71.417635  2306.338832  2134.330276  952.317380  1116.586828
  9642.573  9642.600  1.000  16.821876  376.059658  132.742655  71.426278  2159.824076  2054.221842  920.277452  1191.705588
  9644.574  9644.600  1.000  16.678492  375.683843  132.678235  71.348477  2166.755283  2044.195358  914.266686  1140.622625
  9646.587  9646.600  1.000  16.897703  375.666367  132.741830  71.309417  2219.773878  2025.170683  944.305246  1158.648805
  9648.590  9648.600  1.000  16.912671  374.338979  132.347380  71.018119  2159.870969  2065.236665  925.282433  1180.681989
  9648.863  9648.900  1.000  17.662626  374.346216  132.360956  70.999029  2258.494387  2105.287802  994.373768  1253.781189
  9649.169  9649.200  1.000  17.660766  374.476352  132.406379  71.008321  2269.088935  2163.381934  958.326519  1222.741708
  9649.458  9649.500  1.000  17.600319  374.792913  132.519610  71.043104  2296.099176  2053.212816  1027.423499  1219.739460
  9649.768  9649.800  1.000  17.573297  374.788587  132.554061  71.046833  2315.917513  2145.366939  949.315696  1175.671118
  9650.070  9650.100  1.000  17.131642  374.899205  132.589182  71.036669  2187.357766  2039.193453  999.383012  1196.704561
  9650.376  9650.400  1.000  17.782093  374.933343  132.623077  71.029852  2183.413261  2228.499803  1071.491560  1183.694922
  9650.673  9650.700  1.000  17.622426  374.752021  132.562090  70.983421  2291.647043  2120.317741  1027.418741  1164.656379
  9650.975  9651.000  1.000  17.816130  374.866180  132.611961  70.969174  2257.113493  2133.332906  1029.425140  1258.792966
  9651.273  9651.300  1.000  17.718233  374.638222  132.545588  70.915470  2218.370379  2162.382534  1010.399192  1246.775054
  9651.579  9651.600  1.000  17.387470  374.846846  132.638981  70.913086  2219.252079  2109.306206  989.371706  1199.708479
  9651.885  9651.900  1.000  17.561524  374.724161  132.613061  70.873695  2239.273835  2149.370535  1029.426313  1162.656601
  9652.186  9652.200  1.000  17.409880  374.584112  132.567133  70.816637  2160.002132  2093.271679  1006.395358  1261.795129
  9652.476  9652.500  1.000  17.460498  374.703062  132.627096  70.801549  2160.002132  2114.309608  1006.395358  1261.795129
  9652.798  9652.800  1.000  17.715630  374.657002  132.619963  70.753988  2246.777855  2105.290174  997.383736  1287.833171
  9653.088  9653.100  1.000  17.958960  374.596963  132.595817  70.694291  2261.732680  2184.422471  1058.470471  1222.746407
  9653.394  9653.400  1.000  18.497500  374.429358  132.569802  70.640277  2312.153935  2234.506220  1110.541019  1268.805944
  9653.696  9653.700  1.000  18.005206  374.517399  132.604509  70.602779  2267.621078  2137.348611  1063.475603  1274.817608
  9653.990  9654.000  1.000  18.003367  374.333644  132.545702  70.523046  2267.621078  2200.449865  1022.415973  1248.779015
  9654.300  9654.300  1.000  17.868245  375.131789  132.843026  70.607385  2244.301539  2163.407421  1022.415973  1272.821827
  9654.594  9654.600  1.000  18.112296  375.438885  132.946253  70.595509  2294.362947  2103.300947  1055.470168  1346.926076
  9654.908  9654.900  1.000  18.390058  375.372250  132.930703  70.511280  2287.226190  2238.524613  1100.537248  1276.829350
  9655.198  9655.200  1.000  18.391049  375.352031  132.934903  70.438517  2287.226190  2238.524613  1100.537248  1276.829350
  9655.504  9655.500  1.000  18.603713  375.316253  132.943414  70.349634  2352.388498  2155.386894  1142.592092  1331.908430
  9655.798  9655.800  1.000  18.469247  375.303352  132.947888  70.254531  2300.681877  2209.472490  1137.583321  1283.832499
  9656.096  9656.100  1.000  18.946169  375.131407  132.894840  70.126770  2461.385553  2198.460019  1134.579452  1312.877880
  9656.398  9656.400  1.000  18.961382  375.104531  132.907499  70.008769  2340.399596  2233.512701  1158.612300  1379.975786
  9656.700  9656.700  1.000  19.280751  375.056293  132.897249  69.874688  2387.161682  2218.489407  1203.678685  1422.037287
  9656.999  9657.000  1.000  19.398112  375.157631  132.942180  69.741499  2461.195699  2240.519773  1207.680930  1367.953391
  9657.289  9657.300  1.000  19.656345  375.011542  132.902879  69.569684  2421.960734  2303.642116  1207.687839  1438.065553
  9657.595  9657.600  1.000  19.461214  374.972718  132.900843  69.376354  2348.050454  2236.527591  1273.780543  1439.065622
  9657.897  9657.900  1.000  19.430258  375.009386  132.931113  69.166331  2370.200427  2250.552272  1243.734174  1422.042147
  9658.199  9658.200  1.000  19.595053  374.766947  132.842669  68.888560  2348.153660  2324.655142  1227.705917  1443.063297
  9658.498  9658.500  1.000  20.437032  374.880957  132.897346  68.611765  2428.649277  2452.866269  1283.791552  1496.146939
  9658.792  9658.800  1.000  20.258209  374.774695  132.865391  68.241484  2464.641723  2315.644071  1309.824508  1502.153719
  9659.094  9659.100  1.000  20.452714  374.861345  132.919917  67.810787  2503.237200  2359.720246  1317.841689  1486.132904
  9659.396  9659.400  1.000  20.919097  374.824203  132.925526  67.267352  2486.016740  2489.912773  1284.789347  1580.264901
  9659.691  9659.700  1.000  21.569205  374.771991  132.924622  66.569158  2726.610782  2332.657111  1413.965700  1610.300481
  9659.993  9660.000  1.000  21.549495  374.696228  132.908250  65.650201  2560.307810  2474.904409  1415.977364  1623.324932
  9660.295  9660.300  1.000  22.312680  374.580707  132.877474  64.464581  2548.268813  2519.966743  1519.122543  1770.541464
  9660.606  9660.600  1.000  22.242591  374.636146  132.901195  62.832109  2548.268813  2525.988536  1519.122543  1739.498666
  9660.900  9660.900  1.000  23.070285  374.587948  132.892370  60.890886  2691.995361  2596.098916  1571.196952  1782.559606
  9661.207  9661.200  1.000  23.923825  374.451165  132.855909  58.388820  2738.052861  2648.183534  1736.430097  1835.637612
  9661.501  9661.500  1.000  24.720217  374.326706  132.819495  55.692222  2752.782695  2758.348847  1745.435500  1996.870484
  9661.804  9661.800  1.000  25.573088  374.422731  132.870948  52.857931  2931.252355  2871.535555  1769.477917  2002.879723
  9662.106  9662.100  1.000  26.697585  374.209489  132.792642  50.049203  3099.207376  2911.614873  1853.601235  2126.066327
  9662.400  9662.400  1.000  28.174743  374.141607  132.791321  47.565333  3102.268992  3048.827323  2163.035666  2227.211480
  9662.711  9662.700  1.000  29.690763  374.170301  132.801529  45.318705  3308.754042  3226.120054  2176.059684  2398.467894
  9663.002  9663.000  1.000  31.764565  374.012283  132.754872  43.472443  3436.761747  3441.442555  2349.305570  2652.827543
  9663.304  9663.300  1.000  34.903015  373.942370  132.738653  41.786749  3716.768389  3709.887917  2699.815389  2925.244285
  9663.611  9663.600  1.000  38.436501  374.136326  132.810310  40.386218  3983.948474  4016.392038  3096.373600  3283.777087
  9663.905  9663.900  1.000  42.986608  374.028849  132.782425  39.146878  4501.871746  4486.166146  3461.910040  3628.283657
  9664.204  9664.200  1.000  47.430547  373.961155  132.767709  38.089558  4875.879129  4748.591395  3902.560627  4210.150941
  9664.498  9664.500  1.000  52.927145  373.905309  132.762898  37.194671  5253.930140  5181.287988  4493.419766  4861.102576
  9664.801  9664.800  1.000  59.147675  373.778240  132.716372  36.420697  5911.664939  5786.326763  5106.313729  5303.808420
  9665.096  9665.100  1.000  65.200099  373.766606  132.703298  35.801601  5911.664939  6585.646933  5840.396980  6031.910890
  9665.398  9665.400  1.000  75.760801  373.793126  132.721248  35.273554  7218.757125  7457.109694  6693.676907  6949.323073
  9665.693  9665.700  1.000  84.398443  373.534123  132.610578  34.817503  7799.425822  8317.558869  7519.939284  7888.774224
  9665.992  9666.000  1.000  94.624222  373.530695  132.610987  34.404766  8719.040788  9114.966091  8554.556197  8956.488171
  9666.299  9666.300  1.000  107.397082  373.624149  132.634888  34.009220  10016.400544  10156.801635  9732.422149  10220.518877
  9666.597  9666.600  1.000  115.561121  373.541812  132.596412  33.596591  10686.061468  10945.246547  10568.811644  10966.790886
  9666.900  9666.900  1.000  127.691103  373.345990  132.526280  33.134232  11635.462295  12104.241014  11744.565659  12188.692170
  9667.195  9667.200  1.000  136.267566  373.106371  132.430910  32.641915  12423.566335  12833.602000  12772.293718  12812.834961
  9667.502  9667.500  1.000  144.293132  372.783692  132.313922  32.098789  13147.664138  13641.986748  13312.233983  13688.241469
  9667.796  9667.800  1.000  147.501810  372.661759  132.285965  31.562862  13147.664138  14176.026238  13312.233983  14332.359615
  9668.099  9668.100  1.000  152.352442  372.367344  132.181347  31.015968  13751.465274  14175.042289  14140.620359  14663.946204
  9668.394  9668.400  1.000  155.545224  372.347289  132.183222  30.504906  13940.666259  14498.605039  14532.196899  14945.374253
  9668.701  9668.700  1.000  155.513274  372.310290  132.178513  30.032078  13952.827448  14582.808273  14557.376931  14806.179320
  9669.000  9669.000  1.000  154.663420  372.637220  132.312199  29.606143  13966.537949  14522.654930  14524.262303  14619.891704
  9669.295  9669.300  1.000  155.679356  372.722083  132.353373  29.213895  13989.755727  14687.940306  14431.049981  14916.388026
  9669.618  9669.600  1.000  154.792042  372.894371  132.428753  28.832573  14147.392007  14514.637327  14337.991490  14721.060233
  9669.901  9669.900  1.000  156.583053  372.643973  132.343455  28.474935  14144.794935  14597.872951  14435.179893  15171.883072
  9670.204  9670.200  1.000  158.093509  372.663715  132.354438  28.139327  14308.266035  14743.061177  14701.545246  15162.841926
  9670.503  9670.500  1.000  160.478887  372.729033  132.387697  27.842396  14502.364751  15011.608679  14983.045108  15318.121701
  9670.802  9670.800  1.000  163.113735  372.671566  132.369110  27.584197  14647.734679  15176.928074  15310.530433  15652.658088
  9671.101  9671.100  1.000  163.916596  372.612318  132.371820  27.378619  14709.859412  15345.151783  15432.798402  15589.533118
  9671.404  9671.400  1.000  163.884653  372.516186  132.342844  27.235868  14679.014473  15334.221903  15459.891780  15576.557871
  9671.711  9671.700  1.000  163.979194  372.301416  132.272263  27.164106  14679.014473  15334.221903  15459.891780  15576.557871
  9671.998  9672.000  1.000  159.682085  372.387831  132.327552  27.202670  14324.198200  15002.555728  14868.899094  15268.012448
  9672.293  9672.300  1.000  157.089439  372.360604  132.317861  27.329936  14196.047215  14735.027813  14481.221855  15081.621463
  9672.604  9672.600  1.000  153.667289  372.286695  132.317778  27.574751  13844.039104  14381.428834  14157.613246  14825.205770
  9672.883  9672.900  1.000  150.527192  372.280179  132.347533  27.898041  13844.039104  14070.817145  13973.325797  14150.108010
  9673.203  9673.200  1.000  146.147109  372.185938  132.318198  28.310169  13173.114117  13797.388989  13471.591887  13951.803762
  9673.490  9673.500  1.000  142.590688  372.156319  132.327056  28.773963  12815.103068  13450.685422  13145.003297  13655.233774
  9673.793  9673.800  1.000  141.808065  372.023043  132.295195  29.259650  12928.891396  13276.335775  13095.764507  13454.876136
  9674.104  9674.100  1.000  139.401693  371.880633  132.256524  29.776246  12623.680520  13276.335775  12919.576763  13021.196906
  9674.395  9674.400  1.000  137.332899  372.024746  132.330827  30.256543  12364.141565  12910.689313  12741.194660  13075.211224
  9674.711  9674.700  1.000  137.190302  371.710942  132.224705  30.716989  12364.141565  12814.589059  12741.194660  13075.211224
  9674.994  9675.000  1.000  134.833269  371.609435  132.200794  31.101392  12308.554776  12814.589059  12262.490044  12719.680896
  9675.305  9675.300  1.000  134.854987  371.597705  132.211793  31.452764  12275.239286  12619.150485  12261.424985  12955.989038
  9675.601  9675.600  1.000  133.009753  371.720860  132.257904  31.747414  12066.618816  12532.033138  12121.232806  12722.614984
  9675.908  9675.900  1.000  132.239487  371.551576  132.216912  31.974699  11829.943319  12413.876727  12276.503655  12613.465940
  9676.211  9676.200  1.000  130.236022  371.453748  132.189831  32.161766  11842.155152  12244.513540  11908.902104  12381.087818
  9676.499  9676.500  1.000  128.130933  371.346922  132.168180  32.307837  11734.820679  12100.167197  11604.383412  12141.656463
  9676.806  9676.800  1.000  125.978956  371.380174  132.194192  32.440173  11466.682687  11910.895364  11552.294118  11856.214454
  9677.105  9677.100  1.000  121.816743  371.436591  132.226435  32.540601  11270.905808  11463.161534  11027.494418  11485.633940
  9677.409  9677.400  1.000  119.539155  371.158804  132.142477  32.595481  10923.620706  11248.762514  10898.298721  11297.328029
  9677.696  9677.700  1.000  115.950367  371.256371  132.188761  32.655298  10526.669199  10900.070546  10658.863762  10961.709114
  9678.012  9678.000  1.000  114.980619  371.247007  132.209175  32.696259  10372.745797  10958.270588  10671.884074  10683.310253
  9678.303  9678.300  1.000  111.297229  371.049658  132.159547  32.705950  10214.353808  10412.299776  10290.313055  10379.832140
  9678.603  9678.600  1.000  110.317859  371.029556  132.161988  32.716613  10214.353808  10372.198531  9945.801380  10398.832654
  9678.898  9678.900  1.000  108.073009  371.031921  132.177353  32.730737  9880.530028  10183.885646  9843.615470  10190.505149
  9679.198  9679.200  1.000  105.247638  370.887324  132.133674  32.730537  9730.480681  9960.460533  9461.058697  9883.014686
  9679.497  9679.500  1.000  104.591115  370.956363  132.175413  32.763775  9523.432846  10108.668942  9475.953734  9690.684211
  9679.793  9679.800  1.000  101.820837  370.622116  132.068327  32.785818  9536.577178  9350.378451  9218.576579  9631.521965
  9680.092  9680.100  1.000  100.720521  370.576198  132.063531  32.846994  9466.559674  9406.504742  9059.349780  9392.213744
  9680.400  9680.400  1.000  99.912186  370.585906  132.084685  32.942352  9217.091862  9562.756315  8983.212994  9262.986683
  9680.700  9680.700  1.000  98.572405  370.559346  132.085846  33.052142  9179.804171  9453.546475  8813.912747  9079.662431
  9681.003  9681.000  1.000  98.515790  370.586195  132.102463  33.190995  9152.408298  9453.546475  8730.803976  9171.832995
  9681.295  9681.300  1.000  98.113729  370.549896  132.108736  33.343143  9117.954108  9214.167326  8826.009572  9197.900939
  9681.603  9681.600  1.000  98.055190  370.456634  132.091799  33.510488  9090.180980  9311.283074  8785.941396  9137.790218
  9681.899  9681.900  1.000  96.694867  370.401792  132.072829  33.687108  8846.451678  9253.176598  8738.799754  8977.524115
  9682.202  9682.200  1.000  97.650964  370.316288  132.061173  33.875410  8967.768712  9341.372396  8806.969397  9045.631916
  9682.506  9682.500  1.000  97.518576  370.390939  132.113985  34.075360  8976.098786  9254.214507  8903.122458  8986.561318
