# XDI/1.0 BlueSky/1.11.0 BMM/2023-2.1-py310-tiled
# Beamline.name: BMM (06BM) -- Beamline for Materials Measurement (NIST)
# Beamline.xray_source: NSLS-II three-pole wiggler
# Beamline.collimation: paraboloid mirror, 5 nm Rh on 30 nm Pt
# Beamline.focusing: not in use
# Beamline.harmonic_rejection: flat mirror, Pt stripe, pitch = 7.0 mrad relative to beam
# Beamline.software: Bluesky 1.11.0, Ophyd 1.8.0, DataBroker 2.0.0b23, Python 3.10.8, 2023-2.1-py310-tiled
# Detector.I0: 10 cm N2
# Detector.I1: 25 cm N2
# Detector.I2: 25 cm N2
# Element.symbol: Zn
# Element.edge: K
# Element.reference: Zn
# Element.reference_material: Zn foil
# Facility.name: NSLS-II
# Facility.energy: 3.0
# Facility.current: 400.1
# Facility.mode: top-off
# Facility.GUP: 315355
# Facility.SAF: 313563
# Facility.cycle: 2024-1
# Mono.name: Si(111)
# Mono.d_spacing: 3.1354173
# Mono.encoder_resolution: 0.0000050 deg/ct
# Mono.angle_offset: 16.0891518 deg
# Mono.scan_mode: pseudo channel cut
# Mono.scan_type: step
# Mono.direction: forward in energy
# Sample.name: ZnO
# Sample.prep: powder on tape
# Sample.x: 113.234 mm
# Sample.y: 81.177 mm
# Sample.SDD_position: 205.000 mm
# Scan.experimenters: Bruce Ravel
# Scan.edge_energy: 9658.6
# Scan.start_time: 2024-03-21T13:54:32
# Scan.end_time: 2024-03-21T14:01:32
# Scan.transient_id: 5330
# Scan.uid: 6cb172b4-bdf4-4b8d-a7ff-3f046fcddf0e
# Scan.hdf5file: None
# Scan.plot_hint: ln(I0/It)  --  ln($5/$6)
# Column.1: energy eV
# Column.2: requested_energy eV
# Column.3: measurement_time seconds
# Column.4: xmu 
# Column.5: I0 nA
# Column.6: It nA
# Column.7: Ir nA
# ///////////
# sample courtesy Martin Stennett, University of Sheffield
# -----------
# energy  requested_energy  measurement_time  xmu  I0  It  Ir
  9458.636  9458.600  0.500  1.571619  194.266402  40.350814  20.706979
  9468.629  9468.600  0.500  1.567233  193.686501  40.407200  20.787155
  9478.632  9478.600  0.500  1.562631  193.154370  40.482045  20.876605
  9488.645  9488.600  0.500  1.558281  192.627399  40.547601  20.961146
  9498.629  9498.600  0.500  1.553822  192.294473  40.658401  21.062383
  9508.642  9508.600  0.500  1.549242  191.678750  40.714268  21.143693
  9518.630  9518.600  0.500  1.544956  191.306878  40.809843  21.240710
  9528.674  9528.600  0.500  1.540615  190.783830  40.875316  21.323684
  9538.619  9538.600  0.500  1.536442  190.227788  40.926599  21.405607
  9548.628  9548.600  0.500  1.532211  189.852746  41.019116  21.502117
  9558.631  9558.600  0.500  1.527932  189.340002  41.083718  21.579807
  9568.822  9568.600  0.500  1.524088  188.706449  41.103978  21.648225
  9578.587  9578.600  0.500  1.520007  188.832341  41.299585  21.782218
  9588.574  9588.600  0.500  1.516165  188.361089  41.355085  21.858950
  9598.592  9598.600  0.500  1.512568  187.696874  41.357759  21.912167
  9608.578  9608.600  0.500  1.509480  187.391632  41.418219  21.989770
  9618.590  9618.600  0.500  1.506788  186.939036  41.429536  22.034156
  9628.584  9628.600  0.500  1.505160  186.333345  41.362592  22.034186
  9630.578  9630.600  0.500  1.505084  186.326117  41.364135  22.038055
  9632.574  9632.600  0.500  1.505127  186.302016  41.356998  22.037782
  9634.566  9634.600  0.500  1.505209  186.054454  41.298687  22.006077
  9636.572  9636.600  0.500  1.505590  185.920300  41.253196  21.983232
  9638.574  9638.600  0.500  1.506121  186.034641  41.256652  21.983446
  9640.569  9640.600  0.500  1.506751  185.860499  41.192068  21.947694
  9642.569  9642.600  0.500  1.507990  185.764431  41.119780  21.905441
  9644.574  9644.600  0.500  1.509289  185.770582  41.067750  21.861841
  9646.575  9646.600  0.500  1.511430  185.797322  40.985841  21.799356
  9648.570  9648.600  0.500  1.514301  185.150442  40.726052  21.639309
  9648.863  9648.900  0.500  1.514820  185.270459  40.731301  21.630334
  9649.161  9649.200  0.500  1.515422  185.295443  40.712252  21.622290
  9649.458  9649.500  0.500  1.515889  185.474856  40.732664  21.623518
  9649.760  9649.800  0.500  1.516565  185.645216  40.742533  21.619739
  9650.066  9650.100  0.500  1.517112  185.673976  40.726536  21.604463
  9650.364  9650.400  0.500  1.517817  185.701360  40.703852  21.585491
  9650.669  9650.700  0.500  1.518543  185.615782  40.655584  21.556234
  9650.959  9651.000  0.500  1.519260  185.563366  40.614959  21.528907
  9651.269  9651.300  0.500  1.520039  185.647418  40.601712  21.508583
  9651.571  9651.600  0.500  1.520847  185.566989  40.551329  21.473804
  9651.869  9651.900  0.500  1.521799  185.686581  40.538852  21.454751
  9652.174  9652.200  0.500  1.522824  185.663263  40.492237  21.420019
  9652.472  9652.500  0.500  1.523798  185.541900  40.426376  21.380627
  9652.790  9652.800  0.500  1.524880  185.629331  40.401712  21.351976
  9653.084  9653.100  0.500  1.525996  185.687788  40.369351  21.320504
  9653.386  9653.400  0.500  1.527146  185.737853  40.333808  21.284131
  9653.688  9653.700  0.500  1.528463  185.752719  40.283939  21.244858
  9653.986  9654.000  0.500  1.529708  185.781248  40.240024  21.201444
  9654.288  9654.300  0.500  1.531188  185.765767  40.177174  21.152854
  9654.586  9654.600  0.500  1.532658  185.706753  40.105380  21.099560
  9654.892  9654.900  0.500  1.534191  185.694738  40.041359  21.041965
  9655.190  9655.200  0.500  1.536120  185.754353  39.977021  20.983058
  9655.492  9655.500  0.500  1.538022  185.733793  39.896672  20.915946
  9655.786  9655.800  0.500  1.540055  185.659627  39.799708  20.838096
  9656.092  9656.100  0.500  1.542317  185.702443  39.718974  20.764277
  9656.390  9656.400  0.500  1.544746  185.723232  39.627021  20.683972
  9656.684  9656.700  0.500  1.547278  185.735091  39.529346  20.594642
  9656.991  9657.000  0.500  1.550125  185.578329  39.383702  20.473795
  9657.281  9657.300  0.500  1.553214  185.751328  39.298839  20.382219
  9657.591  9657.600  0.500  1.556615  185.766592  39.168620  20.255697
  9657.885  9657.900  0.500  1.560125  185.804690  39.039405  20.132154
  9658.187  9658.200  0.500  1.564184  185.687524  38.856711  19.962622
  9658.490  9658.500  0.500  1.568872  185.732669  38.684410  19.785637
  9658.792  9658.800  0.500  1.574058  185.708070  38.479222  19.577707
  9659.090  9659.100  0.500  1.579756  185.791273  38.277715  19.344636
  9659.392  9659.400  0.500  1.586496  185.790782  38.020505  19.058477
  9659.691  9659.700  0.500  1.593959  185.766750  37.732934  18.713991
  9659.997  9660.000  0.500  1.603188  185.825951  37.398188  18.276175
  9660.295  9660.300  0.500  1.613482  185.712038  36.992522  17.749307
  9660.602  9660.600  0.500  1.626250  185.666825  36.514294  17.064985
  9660.900  9660.900  0.500  1.640748  185.695691  35.994327  16.282344
  9661.195  9661.200  0.500  1.659091  185.738200  35.348192  15.327821
  9661.497  9661.500  0.500  1.680358  185.582131  34.575310  14.312598
  9661.804  9661.800  0.500  1.707207  185.804075  33.699584  13.239477
  9662.094  9662.100  0.500  1.739731  185.668234  32.597328  12.169213
  9662.396  9662.400  0.500  1.781295  185.715660  31.278202  11.099465
  9662.695  9662.700  0.500  1.829991  185.651793  29.781343  10.113563
  9663.002  9663.000  0.500  1.892363  185.598078  27.972465  9.115468
  9663.288  9663.300  0.500  1.964555  185.542521  26.016449  8.181639
  9663.599  9663.600  0.500  2.055346  185.693860  23.777820  7.223972
  9663.897  9663.900  0.500  2.155618  185.736388  21.514149  6.349778
  9664.192  9664.200  0.500  2.272586  185.619440  19.127225  5.496774
  9664.490  9664.500  0.500  2.398335  185.614375  16.866621  4.734403
  9664.789  9664.800  0.500  2.531122  185.588664  14.767228  4.057901
  9665.088  9665.100  0.500  2.656578  185.543551  13.022927  3.512852
  9665.402  9665.400  0.500  2.773630  185.533816  11.583799  3.072473
  9665.693  9665.700  0.500  2.861878  185.619546  10.610257  2.774362
  9666.000  9666.000  0.500  2.925673  185.549334  9.950748  2.565331
  9666.294  9666.300  0.500  2.960143  185.570368  9.614676  2.448317
  9666.605  9666.600  0.500  2.978417  185.544169  9.439241  2.372122
  9666.900  9666.900  0.500  2.988045  185.534594  9.348319  2.318415
  9667.207  9667.200  0.500  2.999790  185.397554  9.232339  2.256238
  9667.498  9667.500  0.500  3.016183  185.314112  9.078137  2.185361
  9667.800  9667.800  0.500  3.040622  185.197474  8.853396  2.096779
  9668.099  9668.100  0.500  3.073032  185.062006  8.564785  1.996832
  9668.402  9668.400  0.500  3.113795  185.002090  8.220015  1.886108
  9668.705  9668.700  0.500  3.161490  184.969204  7.835769  1.771822
  9669.004  9669.000  0.500  3.218191  185.119745  7.409864  1.651346
  9669.303  9669.300  0.500  3.280195  185.224760  6.968324  1.532773
  9669.598  9669.600  0.500  3.346986  185.350827  6.522546  1.414826
  9669.897  9669.900  0.500  3.413325  185.374806  6.104675  1.307894
  9670.196  9670.200  0.500  3.482473  185.278748  5.693858  1.205969
  9670.499  9670.500  0.500  3.551939  185.332297  5.313292  1.112679
  9670.794  9670.800  0.500  3.619209  185.182262  4.963603  1.029604
  9671.089  9671.100  0.500  3.680858  185.261946  4.668849  0.960745
  9671.392  9671.400  0.500  3.733053  185.254261  4.431228  0.906104
  9671.699  9671.700  0.500  3.768787  185.323037  4.277262  0.871824
  9671.994  9672.000  0.500  3.781870  185.239340  4.219761  0.861692
  9672.301  9672.300  0.500  3.772300  185.132099  4.257873  0.873504
  9672.596  9672.600  0.500  3.743703  185.183290  4.382603  0.907859
  9672.907  9672.900  0.500  3.697657  185.063745  4.586162  0.962904
  9673.203  9673.200  0.500  3.643596  185.401669  4.849757  1.033262
  9673.502  9673.500  0.500  3.580124  185.932903  5.182367  1.123009
  9673.801  9673.800  0.500  3.512586  185.785446  5.540065  1.221049
  9674.112  9674.100  0.500  3.440545  185.744439  5.952592  1.334715
  9674.399  9674.400  0.500  3.374095  185.746480  6.361647  1.448976
  9674.707  9674.700  0.500  3.308718  185.730485  6.790865  1.568212
  9675.006  9675.000  0.500  3.253351  185.722127  7.177139  1.677675
  9675.313  9675.300  0.500  3.201858  185.756902  7.557808  1.784685
  9675.597  9675.600  0.500  3.159244  185.781126  7.887864  1.877230
  9675.908  9675.900  0.500  3.116886  185.682732  8.224799  1.970791
  9676.199  9676.200  0.500  3.075697  185.604554  8.567029  2.063726
  9676.503  9676.500  0.500  3.032247  185.755615  8.954754  2.167254
  9676.802  9676.800  0.500  2.989481  185.769106  9.346704  2.269708
  9677.093  9677.100  0.500  2.948233  185.569653  9.729843  2.370238
  9677.389  9677.400  0.500  2.910841  185.691157  10.107155  2.467529
  9677.708  9677.700  0.500  2.878886  185.660066  10.433596  2.552027
  9677.996  9678.000  0.500  2.856828  185.590130  10.662283  2.610769
  9678.295  9678.300  0.500  2.841874  185.614020  10.824317  2.652742
  9678.599  9678.600  0.500  2.835542  185.458261  10.883939  2.669093
  9678.902  9678.900  0.500  2.836726  185.584447  10.878453  2.669711
  9679.202  9679.200  0.500  2.844249  185.556236  10.795277  2.650533
  9679.501  9679.500  0.500  2.858998  185.460899  10.631765  2.613564
  9679.801  9679.800  0.500  2.880724  185.562813  10.408981  2.562599
  9680.109  9680.100  0.500  2.908787  185.402391  10.112192  2.495557
  9680.400  9680.400  0.500  2.942531  185.413087  9.777218  2.419255
  9680.712  9680.700  0.500  2.980067  185.456806  9.419241  2.338750
  9681.008  9681.000  0.500  3.018372  185.457816  9.065315  2.259397
  9681.307  9681.300  0.500  3.054749  185.396130  8.738566  2.188195
  9681.603  9681.600  0.500  3.085849  185.352839  8.468999  2.131432
  9681.907  9681.900  0.500  3.111243  185.331531  8.255696  2.088938
  9682.210  9682.200  0.500  3.129351  185.306391  8.106448  2.061805
  9682.506  9682.500  0.500  3.139068  185.234339  8.024938  2.052162
  9682.798  9682.800  0.500  3.140955  185.301364  8.012709  2.060069
  9683.093  9683.100  0.500  3.136093  185.305743  8.051946  2.080252
  9683.393  9683.400  0.500  3.125817  185.275485  8.133792  2.111117
  9683.600  9683.600  0.500  3.117235  185.268925  8.203601  2.134779
  9684.605  9684.590  0.500  3.069484  185.266843  8.604738  2.260184
  9685.610  9685.590  0.500  3.038819  185.174578  8.868277  2.338153
  9686.632  9686.610  0.500  3.010341  184.962143  9.113986  2.405230
  9687.682  9687.660  0.500  2.963436  185.049992  9.556195  2.514225
  9688.732  9688.720  0.500  2.912466  184.848363  10.044948  2.629170
  9689.811  9689.800  0.500  2.876055  184.934193  10.422277  2.704900
  9690.919  9690.900  0.500  2.855836  184.894014  10.632830  2.730367
  9692.043  9692.020  0.500  2.829636  184.702286  10.903782  2.765269
  9693.192  9693.160  0.500  2.781122  184.710685  11.446329  2.862968
  9694.337  9694.310  0.500  2.729593  184.562712  12.041950  2.973661
  9695.511  9695.490  0.500  2.693337  184.467289  12.480098  3.045395
  9696.693  9696.680  0.500  2.676919  184.566677  12.693524  3.064504
  9697.908  9697.900  0.500  2.664299  184.400504  12.843151  3.078122
  9699.143  9699.130  0.500  2.655020  184.473641  12.968025  3.090668
  9700.408  9700.380  0.500  2.657119  184.288625  12.927856  3.074946
  9701.668  9701.650  0.500  2.673984  184.258426  12.709572  3.026261
  9702.950  9702.940  0.500  2.700564  184.195779  12.371997  2.962239
  9704.252  9704.250  0.500  2.734139  184.131172  11.959305  2.891171
  9705.599  9705.580  0.500  2.772694  184.084089  11.504041  2.810568
  9706.954  9706.930  0.500  2.809792  184.026490  11.081620  2.730051
  9708.306  9708.300  0.500  2.841642  183.715386  10.716087  2.655714
  9709.687  9709.680  0.500  2.874987  182.106433  10.273872  2.555433
  9711.097  9711.090  0.500  2.913590  182.944696  9.930335  2.472067
  9712.532  9712.510  0.500  2.957507  183.881541  9.552327  2.371802
  9713.967  9713.950  0.500  3.009940  183.600832  9.050534  2.236674
  9715.411  9715.410  0.500  3.069757  183.673093  8.528389  2.097778
  9716.908  9716.890  0.500  3.114792  183.611731  8.150109  1.997649
  9718.410  9718.390  0.500  3.106550  183.396191  8.207910  2.010952
  9719.932  9719.910  0.500  3.051778  183.294494  8.665211  2.125901
  9721.459  9721.450  0.500  2.987898  183.299111  9.237035  2.270801
  9723.024  9723.010  0.500  2.946636  183.240777  9.623090  2.368688
  9724.593  9724.580  0.500  2.931250  183.111216  9.765381  2.406565
  9726.203  9726.180  0.500  2.926326  182.966743  9.805848  2.417157
  9727.802  9727.790  0.500  2.919231  182.959585  9.875274  2.431646
  9729.446  9729.430  0.500  2.916126  182.864781  9.900854  2.430971
  9731.104  9731.080  0.500  2.927014  182.727667  9.786299  2.395030
  9732.761  9732.750  0.500  2.949258  182.568352  9.562669  2.329113
  9734.444  9734.440  0.500  2.971055  182.604480  9.358333  2.265057
  9736.156  9736.150  0.500  2.987130  182.583721  9.208052  2.215407
  9737.898  9737.880  0.500  3.002064  182.465595  9.065697  2.170082
  9739.640  9739.630  0.500  3.020432  182.375815  8.896321  2.124917
  9741.391  9741.390  0.500  3.034301  182.212257  8.765919  2.094438
  9743.195  9743.180  0.500  3.030293  182.099232  8.795666  2.110754
  9744.997  9744.980  0.500  3.012376  181.996781  8.949638  2.165030
  9746.811  9746.810  0.500  2.987571  182.059319  9.177563  2.241291
  9748.659  9748.650  0.500  2.959968  181.744736  9.418118  2.323584
  9750.525  9750.510  0.500  2.931643  181.774581  9.690285  2.410651
  9752.403  9752.390  0.500  2.904209  181.566405  9.948408  2.490990
  9754.306  9754.290  0.500  2.874333  181.561104  10.249807  2.579541
  9756.240  9756.210  0.500  2.845240  181.509444  10.549382  2.665506
  9758.161  9758.150  0.500  2.820061  181.340465  10.808306  2.742095
  9760.121  9760.110  0.500  2.802551  181.389988  11.002237  2.803478
  9762.102  9762.080  0.500  2.791924  181.209822  11.108737  2.839268
  9764.100  9764.080  0.500  2.788143  181.107043  11.144487  2.850685
  9766.090  9766.090  0.500  2.791652  180.966473  11.096831  2.833251
  9768.136  9768.120  0.500  2.801410  180.805837  10.979320  2.790615
  9770.194  9770.180  0.500  2.816951  180.668870  10.801819  2.731691
  9772.253  9772.250  0.500  2.836667  180.213554  10.564247  2.657549
  9774.355  9774.340  0.500  2.861000  179.138650  10.248794  2.565321
  9776.470  9776.450  0.500  2.883192  180.599315  10.105595  2.513138
  9778.594  9778.580  0.500  2.898526  180.411467  9.941463  2.455658
  9780.748  9780.720  0.500  2.907848  180.275563  9.841801  2.415486
  9782.903  9782.890  0.500  2.913826  179.854434  9.760291  2.384474
  9785.104  9785.080  0.500  2.914220  178.235385  9.668617  2.359896
  9787.298  9787.280  0.500  2.909544  179.905847  9.804977  2.395707
  9789.514  9789.500  0.500  2.904869  179.538500  9.830803  2.409536
  9791.772  9791.750  0.500  2.903794  177.343563  9.721058  2.388211
  9794.032  9794.010  0.500  2.909171  179.394643  9.780757  2.408799
  9796.317  9796.290  0.500  2.918600  179.415318  9.690090  2.391913
  9798.616  9798.590  0.500  2.926596  179.268776  9.605065  2.376124
  9800.928  9800.910  0.500  2.927918  178.944562  9.575020  2.377910
  9803.275  9803.250  0.500  2.917641  176.335108  9.532859  2.378907
  9805.623  9805.600  0.500  2.899790  179.202278  9.862355  2.473713
  9808.005  9807.980  0.500  2.879732  179.001769  10.050913  2.534471
  9810.401  9810.370  0.500  2.862442  178.810595  10.215287  2.590916
  9812.819  9812.790  0.500  2.848202  178.741095  10.357760  2.642682
  9815.247  9815.220  0.500  2.839261  178.639315  10.444842  2.682221
  9817.713  9817.670  0.500  2.836339  178.311478  10.456178  2.702004
  9820.135  9820.150  0.500  2.840813  177.453406  10.359403  2.689430
  9822.633  9822.640  0.500  2.852629  177.883767  10.262553  2.667860
  9825.132  9825.150  0.500  2.866821  177.981399  10.123487  2.624135
  9827.658  9827.670  0.500  2.878680  177.839823  9.996179  2.579541
  9830.206  9830.220  0.500  2.887262  177.155752  9.872642  2.534500
  9832.793  9832.790  0.500  2.892664  177.519112  9.839593  2.516081
  9835.356  9835.370  0.500  2.893043  176.239830  9.764985  2.492415
  9837.992  9837.980  0.500  2.889515  177.167445  9.851074  2.513091
  9840.587  9840.600  0.500  2.885827  177.093026  9.883321  2.521464
  9843.259  9843.250  0.500  2.880727  176.438363  9.897124  2.526059
  9845.907  9845.910  0.500  2.871499  176.772575  10.007801  2.553596
  9848.586  9848.590  0.500  2.859043  176.630495  10.125097  2.581630
  9851.292  9851.290  0.500  2.847925  176.510279  10.231327  2.606109
  9854.029  9854.010  0.500  2.837568  176.382406  10.330356  2.630061
  9856.771  9856.750  0.500  2.826278  176.277948  10.441458  2.656174
  9859.515  9859.500  0.500  2.813657  175.937024  10.553624  2.684831
  9862.286  9862.280  0.500  2.801969  175.780162  10.668173  2.715803
  9865.092  9865.070  0.500  2.792402  175.675049  10.764293  2.743793
  9867.917  9867.890  0.500  2.786251  175.552575  10.823150  2.764199
  9870.731  9870.720  0.500  2.785433  175.429218  10.824393  2.772208
  9873.584  9873.570  0.500  2.788605  175.374987  10.786781  2.773826
  9876.472  9876.450  0.500  2.793722  174.892125  10.702177  2.767261
  9879.350  9879.340  0.500  2.800885  171.750236  10.434902  2.714164
  9882.259  9882.250  0.500  2.809040  174.899491  10.539931  2.757284
  9885.182  9885.170  0.500  2.815014  174.786946  10.470415  2.752817
  9888.137  9888.120  0.500  2.819899  174.562654  10.406023  2.748024
  9891.102  9891.090  0.500  2.827002  174.533223  10.330625  2.736331
  9894.090  9894.070  0.500  2.832093  174.320299  10.265634  2.724358
  9897.093  9897.080  0.500  2.833194  174.126374  10.242925  2.720215
  9900.110  9900.100  0.500  2.831054  173.900641  10.251560  2.721478
  9903.167  9903.150  0.500  2.826826  173.806311  10.289418  2.729018
  9906.209  9906.210  0.500  2.820881  173.622057  10.339796  2.738887
  9909.308  9909.290  0.500  2.813835  173.342293  10.396130  2.751905
  9912.393  9912.390  0.500  2.807670  173.334935  10.459972  2.767826
